"MZ","intensity"
4000,6.0166
4000.4,6.0169
4000.8,6.0172
4001.2,6.0174
4001.6,6.0177
4002,6.018
4002.4,6.0183
4002.8,6.0186
4003.2,6.0189
4003.6,6.0191
4004,6.0194
4004.4,6.0197
4004.8,6.02
4005.2,6.0203
4005.6,6.0206
4006,6.0209
4006.4,6.0211
4006.8,6.0214
4007.2,6.0217
4007.6,6.022
4008,6.0223
4008.4,6.0226
4008.8,6.0229
4009.2,6.0231
4009.6,6.0234
4010,6.0237
4010.4,6.024
4010.8,6.0243
4011.2,6.0246
4011.6,6.0249
4012,6.0252
4012.4,6.0254
4012.8,6.0257
4013.2,6.026
4013.6,6.0263
4014,6.0266
4014.4,6.0269
4014.8,6.0272
4015.2,6.0275
4015.6,6.0277
4016,6.028
4016.4,6.0283
4016.8,6.0286
4017.2,6.0289
4017.6,6.0292
4018,6.0295
4018.4,6.0298
4018.8,6.0301
4019.2,6.0303
4019.6,6.0306
4020,6.0309
4020.4,6.0312
4020.8,6.0315
4021.2,6.0318
4021.6,6.0321
4022,6.0324
4022.4,6.0327
4022.8,6.0329
4023.2,6.0332
4023.6,6.0335
4024,6.0338
4024.4,6.0341
4024.8,6.0344
4025.2,6.0347
4025.6,6.035
4026,6.0353
4026.4,6.0356
4026.8,6.0359
4027.2,6.0361
4027.6,6.0364
4028,6.0367
4028.4,6.037
4028.8,6.0373
4029.2,6.0376
4029.6,6.0379
4030,6.0382
4030.4,6.0385
4030.8,6.0388
4031.2,6.0391
4031.6,6.0394
4032,6.0397
4032.4,6.0399
4032.8,6.0402
4033.2,6.0405
4033.6,6.0408
4034,6.0411
4034.4,6.0414
4034.8,6.0417
4035.2,6.042
4035.6,6.0423
4036,6.0426
4036.4,6.0429
4036.8,6.0432
4037.2,6.0435
4037.6,6.0438
4038,6.0441
4038.4,6.0444
4038.8,6.0446
4039.2,6.0449
4039.6,6.0452
4040,6.0455
4040.4,6.0458
4040.8,6.0461
4041.2,6.0464
4041.6,6.0467
4042,6.047
4042.4,6.0473
4042.8,6.0476
4043.2,6.0479
4043.6,6.0482
4044,6.0485
4044.4,6.0488
4044.8,6.0491
4045.2,6.0494
4045.6,6.0497
4046,6.05
4046.4,6.0503
4046.8,6.0506
4047.2,6.0509
4047.6,6.0512
4048,6.0515
4048.4,6.0517
4048.8,6.052
4049.2,6.0523
4049.6,6.0526
4050,6.0529
4050.4,6.0532
4050.8,6.0535
4051.2,6.0538
4051.6,6.0541
4052,6.0544
4052.4,6.0547
4052.8,6.055
4053.2,6.0553
4053.6,6.0556
4054,6.0559
4054.4,6.0562
4054.8,6.0565
4055.2,6.0568
4055.6,6.0571
4056,6.0574
4056.4,6.0577
4056.8,6.058
4057.2,6.0583
4057.6,6.0586
4058,6.0589
4058.4,6.0592
4058.8,6.0595
4059.2,6.0598
4059.6,6.0601
4060,6.0604
4060.4,6.0607
4060.8,6.061
4061.2,6.0613
4061.6,6.0616
4062,6.0619
4062.4,6.0622
4062.8,6.0625
4063.2,6.0628
4063.6,6.0631
4064,6.0634
4064.4,6.0637
4064.8,6.064
4065.2,6.0643
4065.6,6.0646
4066,6.0649
4066.4,6.0652
4066.8,6.0655
4067.2,6.0658
4067.6,6.0661
4068,6.0664
4068.4,6.0667
4068.8,6.067
4069.2,6.0674
4069.6,6.0677
4070,6.068
4070.4,6.0683
4070.8,6.0686
4071.2,6.0689
4071.6,6.0692
4072,6.0695
4072.4,6.0698
4072.8,6.0701
4073.2,6.0704
4073.6,6.0707
4074,6.071
4074.4,6.0713
4074.8,6.0716
4075.2,6.0719
4075.6,6.0722
4076,6.0725
4076.4,6.0728
4076.8,6.0731
4077.2,6.0734
4077.6,6.0737
4078,6.074
4078.4,6.0743
4078.8,6.0746
4079.2,6.075
4079.6,6.0753
4080,6.0756
4080.4,6.0759
4080.8,6.0762
4081.2,6.0765
4081.6,6.0768
4082,6.0771
4082.4,6.0774
4082.8,6.0777
4083.2,6.078
4083.6,6.0783
4084,6.0786
4084.4,6.0789
4084.8,6.0792
4085.2,6.0795
4085.6,6.0799
4086,6.0802
4086.4,6.0805
4086.8,6.0808
4087.2,6.0811
4087.6,6.0814
4088,6.0817
4088.4,6.082
4088.8,6.0823
4089.2,6.0826
4089.6,6.0829
4090,6.0832
4090.4,6.0835
4090.8,6.0839
4091.2,6.0842
4091.6,6.0845
4092,6.0848
4092.4,6.0851
4092.8,6.0854
4093.2,6.0857
4093.6,6.086
4094,6.0863
4094.4,6.0866
4094.8,6.0869
4095.2,6.0873
4095.6,6.0876
4096,6.0879
4096.4,6.0882
4096.8,6.0885
4097.2,6.0888
4097.6,6.0891
4098,6.0894
4098.4,6.0897
4098.8,6.09
4099.2,6.0904
4099.6,6.0907
4100,6.091
4100.4,6.0913
4100.8,6.0916
4101.2,6.0919
4101.6,6.0922
4102,6.0925
4102.4,6.0928
4102.8,6.0932
4103.2,6.0935
4103.6,6.0938
4104,6.0941
4104.4,6.0944
4104.8,6.0947
4105.2,6.095
4105.6,6.0953
4106,6.0957
4106.4,6.096
4106.8,6.0963
4107.2,6.0966
4107.6,6.0969
4108,6.0972
4108.4,6.0975
4108.8,6.0978
4109.2,6.0982
4109.6,6.0985
4110,6.0988
4110.4,6.0991
4110.8,6.0994
4111.2,6.0997
4111.6,6.1
4112,6.1004
4112.4,6.1007
4112.8,6.101
4113.2,6.1013
4113.6,6.1016
4114,6.1019
4114.4,6.1022
4114.8,6.1026
4115.2,6.1029
4115.6,6.1032
4116,6.1035
4116.4,6.1038
4116.8,6.1041
4117.2,6.1044
4117.6,6.1048
4118,6.1051
4118.4,6.1054
4118.8,6.1057
4119.2,6.106
4119.6,6.1063
4120,6.1067
4120.4,6.107
4120.8,6.1073
4121.2,6.1076
4121.6,6.1079
4122,6.1082
4122.4,6.1085
4122.8,6.1089
4123.2,6.1092
4123.6,6.1095
4124,6.1098
4124.4,6.1101
4124.8,6.1105
4125.2,6.1108
4125.6,6.1111
4126,6.1114
4126.4,6.1117
4126.8,6.112
4127.2,6.1124
4127.6,6.1127
4128,6.113
4128.4,6.1133
4128.8,6.1136
4129.2,6.1139
4129.6,6.1143
4130,6.1146
4130.4,6.1149
4130.8,6.1152
4131.2,6.1155
4131.6,6.1159
4132,6.1162
4132.4,6.1165
4132.8,6.1168
4133.2,6.1171
4133.6,6.1175
4134,6.1178
4134.4,6.1181
4134.8,6.1184
4135.2,6.1187
4135.6,6.1191
4136,6.1194
4136.4,6.1197
4136.8,6.12
4137.2,6.1203
4137.6,6.1207
4138,6.121
4138.4,6.1213
4138.8,6.1216
4139.2,6.1219
4139.6,6.1223
4140,6.1226
4140.4,6.1229
4140.8,6.1232
4141.2,6.1235
4141.6,6.1239
4142,6.1242
4142.4,6.1245
4142.8,6.1248
4143.2,6.1251
4143.6,6.1255
4144,6.1258
4144.4,6.1261
4144.8,6.1264
4145.2,6.1268
4145.6,6.1271
4146,6.1274
4146.4,6.1277
4146.8,6.128
4147.2,6.1284
4147.6,6.1287
4148,6.129
4148.4,6.1293
4148.8,6.1297
4149.2,6.13
4149.6,6.1303
4150,6.1306
4150.4,6.131
4150.8,6.1313
4151.2,6.1316
4151.6,6.1319
4152,6.1323
4152.4,6.1326
4152.8,6.1329
4153.2,6.1332
4153.6,6.1336
4154,6.1339
4154.4,6.1342
4154.8,6.1345
4155.2,6.1348
4155.6,6.1352
4156,6.1355
4156.4,6.1358
4156.8,6.1361
4157.2,6.1365
4157.6,6.1368
4158,6.1371
4158.4,6.1374
4158.8,6.1378
4159.2,6.1381
4159.6,6.1384
4160,6.1388
4160.4,6.1391
4160.8,6.1394
4161.2,6.1397
4161.6,6.1401
4162,6.1404
4162.4,6.1407
4162.8,6.141
4163.2,6.1414
4163.6,6.1417
4164,6.142
4164.4,6.1423
4164.8,6.1427
4165.2,6.143
4165.6,6.1433
4166,6.1437
4166.4,6.144
4166.8,6.1443
4167.2,6.1446
4167.6,6.145
4168,6.1453
4168.4,6.1456
4168.8,6.1459
4169.2,6.1463
4169.6,6.1466
4170,6.1469
4170.4,6.1473
4170.8,6.1476
4171.2,6.1479
4171.6,6.1482
4172,6.1486
4172.4,6.1489
4172.8,6.1492
4173.2,6.1496
4173.6,6.1499
4174,6.1502
4174.4,6.1506
4174.8,6.1509
4175.2,6.1512
4175.6,6.1515
4176,6.1519
4176.4,6.1522
4176.8,6.1525
4177.2,6.1529
4177.6,6.1532
4178,6.1535
4178.4,6.1538
4178.8,6.1542
4179.2,6.1545
4179.6,6.1548
4180,6.1552
4180.4,6.1555
4180.8,6.1558
4181.2,6.1562
4181.6,6.1565
4182,6.1568
4182.4,6.1572
4182.8,6.1575
4183.2,6.1578
4183.6,6.1582
4184,6.1585
4184.4,6.1588
4184.8,6.1591
4185.2,6.1595
4185.6,6.1598
4186,6.1601
4186.4,6.1605
4186.8,6.1608
4187.2,6.1611
4187.6,6.1615
4188,6.1618
4188.4,6.1621
4188.8,6.1625
4189.2,6.1628
4189.6,6.1631
4190,6.1635
4190.4,6.1638
4190.8,6.1641
4191.2,6.1645
4191.6,6.1648
4192,6.1651
4192.4,6.1655
4192.8,6.1658
4193.2,6.1661
4193.6,6.1665
4194,6.1668
4194.4,6.1671
4194.8,6.1675
4195.2,6.1678
4195.6,6.1681
4196,6.1685
4196.4,6.1688
4196.8,6.1691
4197.2,6.1695
4197.6,6.1698
4198,6.1702
4198.4,6.1705
4198.8,6.1708
4199.2,6.1712
4199.6,6.1715
4200,6.1718
4200.4,6.1722
4200.8,6.1725
4201.2,6.1728
4201.6,6.1732
4202,6.1735
4202.4,6.1738
4202.8,6.1742
4203.2,6.1745
4203.6,6.1748
4204,6.1752
4204.4,6.1755
4204.8,6.1759
4205.2,6.1762
4205.6,6.1765
4206,6.1769
4206.4,6.1772
4206.8,6.1775
4207.2,6.1779
4207.6,6.1782
4208,6.1786
4208.4,6.1789
4208.8,6.1792
4209.2,6.1796
4209.6,6.1799
4210,6.1802
4210.4,6.1806
4210.8,6.1809
4211.2,6.1813
4211.6,6.1816
4212,6.1819
4212.4,6.1823
4212.8,6.1826
4213.2,6.1829
4213.6,6.1833
4214,6.1836
4214.4,6.184
4214.8,6.1843
4215.2,6.1846
4215.6,6.185
4216,6.1853
4216.4,6.1857
4216.8,6.186
4217.2,6.1863
4217.6,6.1867
4218,6.187
4218.4,6.1874
4218.8,6.1877
4219.2,6.188
4219.6,6.1884
4220,6.1887
4220.4,6.1891
4220.8,6.1894
4221.2,6.1897
4221.6,6.1901
4222,6.1904
4222.4,6.1908
4222.8,6.1911
4223.2,6.1914
4223.6,6.1918
4224,6.1921
4224.4,6.1925
4224.8,6.1928
4225.2,6.1931
4225.6,6.1935
4226,6.1938
4226.4,6.1942
4226.8,6.1945
4227.2,6.1948
4227.6,6.1952
4228,6.1955
4228.4,6.1959
4228.8,6.1962
4229.2,6.1966
4229.6,6.1969
4230,6.1972
4230.4,6.1976
4230.8,6.1979
4231.2,6.1983
4231.6,6.1986
4232,6.199
4232.4,6.1993
4232.8,6.1996
4233.2,6.2
4233.6,6.2003
4234,6.2007
4234.4,6.201
4234.8,6.2014
4235.2,6.2017
4235.6,6.202
4236,6.2024
4236.4,6.2027
4236.8,6.2031
4237.2,6.2034
4237.6,6.2038
4238,6.2041
4238.4,6.2044
4238.8,6.2048
4239.2,6.2051
4239.6,6.2055
4240,6.2058
4240.4,6.2062
4240.8,6.2065
4241.2,6.2069
4241.6,6.2072
4242,6.2075
4242.4,6.2079
4242.8,6.2082
4243.2,6.2086
4243.6,6.2089
4244,6.2093
4244.4,6.2096
4244.8,6.21
4245.2,6.2103
4245.6,6.2106
4246,6.211
4246.4,6.2113
4246.8,6.2117
4247.2,6.212
4247.6,6.2124
4248,6.2127
4248.4,6.2131
4248.8,6.2134
4249.2,6.2138
4249.6,6.2141
4250,6.2145
4250.4,6.2148
4250.8,6.2151
4251.2,6.2155
4251.6,6.2158
4252,6.2162
4252.4,6.2165
4252.8,6.2169
4253.2,6.2172
4253.6,6.2176
4254,6.2179
4254.4,6.2183
4254.8,6.2186
4255.2,6.219
4255.6,6.2193
4256,6.2197
4256.4,6.22
4256.8,6.2204
4257.2,6.2207
4257.6,6.2211
4258,6.2214
4258.4,6.2217
4258.8,6.2221
4259.2,6.2224
4259.6,6.2228
4260,6.2231
4260.4,6.2235
4260.8,6.2238
4261.2,6.2242
4261.6,6.2245
4262,6.2249
4262.4,6.2252
4262.8,6.2256
4263.2,6.2259
4263.6,6.2263
4264,6.2266
4264.4,6.227
4264.8,6.2273
4265.2,6.2277
4265.6,6.228
4266,6.2284
4266.4,6.2287
4266.8,6.2291
4267.2,6.2294
4267.6,6.2298
4268,6.2301
4268.4,6.2305
4268.8,6.2308
4269.2,6.2312
4269.6,6.2315
4270,6.2319
4270.4,6.2322
4270.8,6.2326
4271.2,6.2329
4271.6,6.2333
4272,6.2336
4272.4,6.234
4272.8,6.2343
4273.2,6.2347
4273.6,6.235
4274,6.2354
4274.4,6.2357
4274.8,6.2361
4275.2,6.2364
4275.6,6.2368
4276,6.2372
4276.4,6.2375
4276.8,6.2379
4277.2,6.2382
4277.6,6.2386
4278,6.2389
4278.4,6.2393
4278.8,6.2396
4279.2,6.24
4279.6,6.2403
4280,6.2407
4280.4,6.241
4280.8,6.2414
4281.2,6.2417
4281.6,6.2421
4282,6.2424
4282.4,6.2428
4282.8,6.2431
4283.2,6.2435
4283.6,6.2438
4284,6.2442
4284.4,6.2446
4284.8,6.2449
4285.2,6.2453
4285.6,6.2456
4286,6.246
4286.4,6.2463
4286.8,6.2467
4287.2,6.247
4287.6,6.2474
4288,6.2477
4288.4,6.2481
4288.8,6.2484
4289.2,6.2488
4289.6,6.2492
4290,6.2495
4290.4,6.2499
4290.8,6.2502
4291.2,6.2506
4291.6,6.2509
4292,6.2513
4292.4,6.2516
4292.8,6.252
4293.2,6.2524
4293.6,6.2527
4294,6.2531
4294.4,6.2534
4294.8,6.2538
4295.2,6.2541
4295.6,6.2545
4296,6.2548
4296.4,6.2552
4296.8,6.2556
4297.2,6.2559
4297.6,6.2563
4298,6.2566
4298.4,6.257
4298.8,6.2573
4299.2,6.2577
4299.6,6.258
4300,6.2584
4300.4,6.2588
4300.8,6.2591
4301.2,6.2595
4301.6,6.2598
4302,6.2602
4302.4,6.2605
4302.8,6.2609
4303.2,6.2613
4303.6,6.2616
4304,6.262
4304.4,6.2623
4304.8,6.2627
4305.2,6.263
4305.6,6.2634
4306,6.2638
4306.4,6.2641
4306.8,6.2645
4307.2,6.2648
4307.6,6.2652
4308,6.2655
4308.4,6.2659
4308.8,6.2663
4309.2,6.2666
4309.6,6.267
4310,6.2673
4310.4,6.2677
4310.8,6.2681
4311.2,6.2684
4311.6,6.2688
4312,6.2691
4312.4,6.2695
4312.8,6.2698
4313.2,6.2702
4313.6,6.2706
4314,6.2709
4314.4,6.2713
4314.8,6.2716
4315.2,6.272
4315.6,6.2724
4316,6.2727
4316.4,6.2731
4316.8,6.2734
4317.2,6.2738
4317.6,6.2742
4318,6.2745
4318.4,6.2749
4318.8,6.2752
4319.2,6.2756
4319.6,6.276
4320,6.2763
4320.4,6.2767
4320.8,6.277
4321.2,6.2774
4321.6,6.2778
4322,6.2781
4322.4,6.2785
4322.8,6.2788
4323.2,6.2792
4323.6,6.2796
4324,6.2799
4324.4,6.2803
4324.8,6.2806
4325.2,6.281
4325.6,6.2814
4326,6.2817
4326.4,6.2821
4326.8,6.2825
4327.2,6.2828
4327.6,6.2832
4328,6.2835
4328.4,6.2839
4328.8,6.2843
4329.2,6.2846
4329.6,6.285
4330,6.2853
4330.4,6.2857
4330.8,6.2861
4331.2,6.2864
4331.6,6.2868
4332,6.2872
4332.4,6.2875
4332.8,6.2879
4333.2,6.2882
4333.6,6.2886
4334,6.289
4334.4,6.2893
4334.8,6.2897
4335.2,6.2901
4335.6,6.2904
4336,6.2908
4336.4,6.2911
4336.8,6.2915
4337.2,6.2919
4337.6,6.2922
4338,6.2926
4338.4,6.293
4338.8,6.2933
4339.2,6.2937
4339.6,6.2941
4340,6.2944
4340.4,6.2948
4340.8,6.2951
4341.2,6.2955
4341.6,6.2959
4342,6.2962
4342.4,6.2966
4342.8,6.297
4343.2,6.2973
4343.6,6.2977
4344,6.2981
4344.4,6.2984
4344.8,6.2988
4345.2,6.2991
4345.6,6.2995
4346,6.2999
4346.4,6.3002
4346.8,6.3006
4347.2,6.301
4347.6,6.3013
4348,6.3017
4348.4,6.3021
4348.8,6.3024
4349.2,6.3028
4349.6,6.3032
4350,6.3035
4350.4,6.3039
4350.8,6.3043
4351.2,6.3046
4351.6,6.305
4352,6.3054
4352.4,6.3057
4352.8,6.3061
4353.2,6.3065
4353.6,6.3068
4354,6.3072
4354.4,6.3076
4354.8,6.3079
4355.2,6.3083
4355.6,6.3086
4356,6.309
4356.4,6.3094
4356.8,6.3097
4357.2,6.3101
4357.6,6.3105
4358,6.3108
4358.4,6.3112
4358.8,6.3116
4359.2,6.3119
4359.6,6.3123
4360,6.3127
4360.4,6.313
4360.8,6.3134
4361.2,6.3138
4361.6,6.3142
4362,6.3145
4362.4,6.3149
4362.8,6.3153
4363.2,6.3156
4363.6,6.316
4364,6.3164
4364.4,6.3167
4364.8,6.3171
4365.2,6.3175
4365.6,6.3178
4366,6.3182
4366.4,6.3186
4366.8,6.3189
4367.2,6.3193
4367.6,6.3197
4368,6.32
4368.4,6.3204
4368.8,6.3208
4369.2,6.3211
4369.6,6.3215
4370,6.3219
4370.4,6.3222
4370.8,6.3226
4371.2,6.323
4371.6,6.3234
4372,6.3237
4372.4,6.3241
4372.8,6.3245
4373.2,6.3248
4373.6,6.3252
4374,6.3256
4374.4,6.3259
4374.8,6.3263
4375.2,6.3267
4375.6,6.327
4376,6.3274
4376.4,6.3278
4376.8,6.3281
4377.2,6.3285
4377.6,6.3289
4378,6.3293
4378.4,6.3296
4378.8,6.33
4379.2,6.3304
4379.6,6.3307
4380,6.3311
4380.4,6.3315
4380.8,6.3318
4381.2,6.3322
4381.6,6.3326
4382,6.333
4382.4,6.3333
4382.8,6.3337
4383.2,6.3341
4383.6,6.3344
4384,6.3348
4384.4,6.3352
4384.8,6.3356
4385.2,6.3359
4385.6,6.3363
4386,6.3367
4386.4,6.337
4386.8,6.3374
4387.2,6.3378
4387.6,6.3381
4388,6.3385
4388.4,6.3389
4388.8,6.3393
4389.2,6.3396
4389.6,6.34
4390,6.3404
4390.4,6.3407
4390.8,6.3411
4391.2,6.3415
4391.6,6.3419
4392,6.3422
4392.4,6.3426
4392.8,6.343
4393.2,6.3434
4393.6,6.3437
4394,6.3441
4394.4,6.3445
4394.8,6.3448
4395.2,6.3452
4395.6,6.3456
4396,6.346
4396.4,6.3463
4396.8,6.3467
4397.2,6.3471
4397.6,6.3474
4398,6.3478
4398.4,6.3482
4398.8,6.3486
4399.2,6.3489
4399.6,6.3493
4400,6.3497
4400.4,6.3501
4400.8,6.3504
4401.2,6.3508
4401.6,6.3512
4402,6.3515
4402.4,6.3519
4402.8,6.3523
4403.2,6.3527
4403.6,6.353
4404,6.3534
4404.4,6.3538
4404.8,6.3542
4405.2,6.3545
4405.6,6.3549
4406,6.3553
4406.4,6.3557
4406.8,6.356
4407.2,6.3564
4407.6,6.3568
4408,6.3571
4408.4,6.3575
4408.8,6.3579
4409.2,6.3583
4409.6,6.3586
4410,6.359
4410.4,6.3594
4410.8,6.3598
4411.2,6.3601
4411.6,6.3605
4412,6.3609
4412.4,6.3613
4412.8,6.3616
4413.2,6.362
4413.6,6.3624
4414,6.3628
4414.4,6.3631
4414.8,6.3635
4415.2,6.3639
4415.6,6.3643
4416,6.3646
4416.4,6.365
4416.8,6.3654
4417.2,6.3658
4417.6,6.3661
4418,6.3665
4418.4,6.3669
4418.8,6.3673
4419.2,6.3676
4419.6,6.368
4420,6.3684
4420.4,6.3688
4420.8,6.3691
4421.2,6.3695
4421.6,6.3699
4422,6.3703
4422.4,6.3706
4422.8,6.371
4423.2,6.3714
4423.6,6.3718
4424,6.3721
4424.4,6.3725
4424.8,6.3729
4425.2,6.3733
4425.6,6.3737
4426,6.374
4426.4,6.3744
4426.8,6.3748
4427.2,6.3752
4427.6,6.3755
4428,6.3759
4428.4,6.3763
4428.8,6.3767
4429.2,6.377
4429.6,6.3774
4430,6.3778
4430.4,6.3782
4430.8,6.3785
4431.2,6.3789
4431.6,6.3793
4432,6.3797
4432.4,6.3801
4432.8,6.3804
4433.2,6.3808
4433.6,6.3812
4434,6.3816
4434.4,6.3819
4434.8,6.3823
4435.2,6.3827
4435.6,6.3831
4436,6.3835
4436.4,6.3838
4436.8,6.3842
4437.2,6.3846
4437.6,6.385
4438,6.3853
4438.4,6.3857
4438.8,6.3861
4439.2,6.3865
4439.6,6.3868
4440,6.3872
4440.4,6.3876
4440.8,6.388
4441.2,6.3884
4441.6,6.3887
4442,6.3891
4442.4,6.3895
4442.8,6.3899
4443.2,6.3903
4443.6,6.3906
4444,6.391
4444.4,6.3914
4444.8,6.3918
4445.2,6.3921
4445.6,6.3925
4446,6.3929
4446.4,6.3933
4446.8,6.3937
4447.2,6.394
4447.6,6.3944
4448,6.3948
4448.4,6.3952
4448.8,6.3956
4449.2,6.3959
4449.6,6.3963
4450,6.3967
4450.4,6.3971
4450.8,6.3974
4451.2,6.3978
4451.6,6.3982
4452,6.3986
4452.4,6.399
4452.8,6.3993
4453.2,6.3997
4453.6,6.4001
4454,6.4005
4454.4,6.4009
4454.8,6.4012
4455.2,6.4016
4455.6,6.402
4456,6.4024
4456.4,6.4028
4456.8,6.4031
4457.2,6.4035
4457.6,6.4039
4458,6.4043
4458.4,6.4047
4458.8,6.405
4459.2,6.4054
4459.6,6.4058
4460,6.4062
4460.4,6.4066
4460.8,6.4069
4461.2,6.4073
4461.6,6.4077
4462,6.4081
4462.4,6.4085
4462.8,6.4088
4463.2,6.4092
4463.6,6.4096
4464,6.41
4464.4,6.4104
4464.8,6.4107
4465.2,6.4111
4465.6,6.4115
4466,6.4119
4466.4,6.4123
4466.8,6.4126
4467.2,6.413
4467.6,6.4134
4468,6.4138
4468.4,6.4142
4468.8,6.4145
4469.2,6.4149
4469.6,6.4153
4470,6.4157
4470.4,6.4161
4470.8,6.4164
4471.2,6.4168
4471.6,6.4172
4472,6.4176
4472.4,6.418
4472.8,6.4184
4473.2,6.4187
4473.6,6.4191
4474,6.4195
4474.4,6.4199
4474.8,6.4203
4475.2,6.4206
4475.6,6.421
4476,6.4214
4476.4,6.4218
4476.8,6.4222
4477.2,6.4226
4477.6,6.4229
4478,6.4233
4478.4,6.4237
4478.8,6.4241
4479.2,6.4245
4479.6,6.4248
4480,6.4252
4480.4,6.4256
4480.8,6.426
4481.2,6.4264
4481.6,6.4268
4482,6.4271
4482.4,6.4275
4482.8,6.4279
4483.2,6.4283
4483.6,6.4287
4484,6.429
4484.4,6.4294
4484.8,6.4298
4485.2,6.4302
4485.6,6.4306
4486,6.431
4486.4,6.4313
4486.8,6.4317
4487.2,6.4321
4487.6,6.4325
4488,6.4329
4488.4,6.4332
4488.8,6.4336
4489.2,6.434
4489.6,6.4344
4490,6.4348
4490.4,6.4352
4490.8,6.4355
4491.2,6.4359
4491.6,6.4363
4492,6.4367
4492.4,6.4371
4492.8,6.4375
4493.2,6.4378
4493.6,6.4382
4494,6.4386
4494.4,6.439
4494.8,6.4394
4495.2,6.4398
4495.6,6.4401
4496,6.4405
4496.4,6.4409
4496.8,6.4413
4497.2,6.4417
4497.6,6.4421
4498,6.4424
4498.4,6.4428
4498.8,6.4432
4499.2,6.4436
4499.6,6.444
4500.1,6.4444
4500.5,6.4447
4500.9,6.4451
4501.3,6.4455
4501.7,6.4459
4502.1,6.4463
4502.5,6.4467
4502.9,6.447
4503.3,6.4474
4503.7,6.4478
4504.1,6.4482
4504.5,6.4486
4504.9,6.449
4505.3,6.4493
4505.7,6.4497
4506.1,6.4501
4506.5,6.4505
4506.9,6.4509
4507.3,6.4513
4507.7,6.4516
4508.1,6.452
4508.5,6.4524
4508.9,6.4528
4509.3,6.4532
4509.7,6.4536
4510.1,6.454
4510.5,6.4543
4510.9,6.4547
4511.3,6.4551
4511.7,6.4555
4512.1,6.4559
4512.5,6.4563
4512.9,6.4566
4513.3,6.457
4513.7,6.4574
4514.1,6.4578
4514.5,6.4582
4514.9,6.4586
4515.3,6.459
4515.7,6.4593
4516.1,6.4597
4516.5,6.4601
4516.9,6.4605
4517.3,6.4609
4517.7,6.4613
4518.1,6.4616
4518.5,6.462
4518.9,6.4624
4519.3,6.4628
4519.7,6.4632
4520.1,6.4636
4520.5,6.464
4520.9,6.4643
4521.3,6.4647
4521.7,6.4651
4522.1,6.4655
4522.5,6.4659
4522.9,6.4663
4523.3,6.4667
4523.7,6.467
4524.1,6.4674
4524.5,6.4678
4524.9,6.4682
4525.3,6.4686
4525.7,6.469
4526.1,6.4693
4526.5,6.4697
4526.9,6.4701
4527.3,6.4705
4527.7,6.4709
4528.1,6.4713
4528.5,6.4717
4528.9,6.472
4529.3,6.4724
4529.7,6.4728
4530.1,6.4732
4530.5,6.4736
4530.9,6.474
4531.3,6.4744
4531.7,6.4748
4532.1,6.4751
4532.5,6.4755
4532.9,6.4759
4533.3,6.4763
4533.7,6.4767
4534.1,6.4771
4534.5,6.4775
4534.9,6.4778
4535.3,6.4782
4535.7,6.4786
4536.1,6.479
4536.5,6.4794
4536.9,6.4798
4537.3,6.4802
4537.7,6.4805
4538.1,6.4809
4538.5,6.4813
4538.9,6.4817
4539.3,6.4821
4539.7,6.4825
4540.1,6.4829
4540.5,6.4833
4540.9,6.4836
4541.3,6.484
4541.7,6.4844
4542.1,6.4848
4542.5,6.4852
4542.9,6.4856
4543.3,6.486
4543.7,6.4864
4544.1,6.4868
4544.5,6.4871
4544.9,6.4875
4545.3,6.4879
4545.7,6.4883
4546.1,6.4887
4546.5,6.4891
4546.9,6.4895
4547.3,6.4899
4547.7,6.4903
4548.1,6.4906
4548.5,6.491
4548.9,6.4914
4549.3,6.4918
4549.7,6.4922
4550.1,6.4926
4550.5,6.493
4550.9,6.4934
4551.3,6.4938
4551.7,6.4942
4552.1,6.4946
4552.5,6.495
4552.9,6.4953
4553.3,6.4957
4553.7,6.4961
4554.1,6.4965
4554.5,6.4969
4554.9,6.4973
4555.3,6.4977
4555.7,6.4981
4556.1,6.4985
4556.5,6.4989
4556.9,6.4993
4557.3,6.4997
4557.7,6.5001
4558.1,6.5005
4558.5,6.5009
4558.9,6.5013
4559.3,6.5017
4559.7,6.5021
4560.1,6.5025
4560.5,6.5029
4560.9,6.5033
4561.3,6.5037
4561.7,6.5041
4562.1,6.5045
4562.5,6.5049
4562.9,6.5053
4563.3,6.5057
4563.7,6.5061
4564.1,6.5065
4564.5,6.5069
4564.9,6.5073
4565.3,6.5077
4565.7,6.5081
4566.1,6.5085
4566.5,6.5089
4566.9,6.5093
4567.3,6.5097
4567.7,6.5101
4568.1,6.5106
4568.5,6.511
4568.9,6.5114
4569.3,6.5118
4569.7,6.5122
4570.1,6.5126
4570.5,6.513
4570.9,6.5135
4571.3,6.5139
4571.7,6.5143
4572.1,6.5147
4572.5,6.5151
4572.9,6.5156
4573.3,6.516
4573.7,6.5164
4574.1,6.5169
4574.5,6.5173
4574.9,6.5177
4575.3,6.5181
4575.7,6.5186
4576.1,6.519
4576.5,6.5195
4576.9,6.5199
4577.3,6.5203
4577.7,6.5208
4578.1,6.5212
4578.5,6.5217
4578.9,6.5221
4579.3,6.5226
4579.7,6.523
4580.1,6.5235
4580.5,6.5239
4580.9,6.5244
4581.3,6.5249
4581.7,6.5253
4582.1,6.5258
4582.5,6.5263
4582.9,6.5268
4583.3,6.5272
4583.7,6.5277
4584.1,6.5282
4584.5,6.5287
4584.9,6.5292
4585.3,6.5297
4585.7,6.5302
4586.1,6.5307
4586.5,6.5312
4586.9,6.5317
4587.3,6.5322
4587.7,6.5327
4588.1,6.5332
4588.5,6.5338
4588.9,6.5343
4589.3,6.5348
4589.7,6.5354
4590.1,6.5359
4590.5,6.5364
4590.9,6.537
4591.3,6.5376
4591.7,6.5381
4592.1,6.5387
4592.5,6.5393
4592.9,6.5399
4593.3,6.5404
4593.7,6.541
4594.1,6.5416
4594.5,6.5423
4594.9,6.5429
4595.3,6.5435
4595.7,6.5441
4596.1,6.5448
4596.5,6.5454
4596.9,6.5461
4597.3,6.5467
4597.7,6.5474
4598.1,6.5481
4598.5,6.5488
4598.9,6.5494
4599.3,6.5502
4599.7,6.5509
4600.1,6.5516
4600.5,6.5523
4600.9,6.5531
4601.3,6.5538
4601.7,6.5546
4602.1,6.5554
4602.5,6.5562
4602.9,6.557
4603.3,6.5578
4603.7,6.5586
4604.1,6.5595
4604.5,6.5603
4604.9,6.5612
4605.3,6.5621
4605.7,6.563
4606.1,6.5639
4606.5,6.5648
4606.9,6.5658
4607.3,6.5667
4607.7,6.5677
4608.1,6.5687
4608.5,6.5697
4608.9,6.5708
4609.3,6.5718
4609.7,6.5729
4610.1,6.574
4610.5,6.5751
4610.9,6.5762
4611.3,6.5774
4611.7,6.5786
4612.1,6.5797
4612.5,6.581
4612.9,6.5822
4613.3,6.5835
4613.7,6.5848
4614.1,6.5861
4614.5,6.5874
4614.9,6.5888
4615.3,6.5902
4615.7,6.5916
4616.1,6.5931
4616.5,6.5946
4616.9,6.5961
4617.3,6.5976
4617.7,6.5992
4618.1,6.6008
4618.5,6.6024
4618.9,6.6041
4619.3,6.6058
4619.7,6.6076
4620.1,6.6094
4620.5,6.6112
4620.9,6.6131
4621.3,6.615
4621.7,6.6169
4622.1,6.6189
4622.5,6.6209
4622.9,6.623
4623.3,6.6251
4623.7,6.6272
4624.1,6.6294
4624.5,6.6317
4624.9,6.634
4625.3,6.6363
4625.7,6.6387
4626.1,6.6412
4626.5,6.6437
4626.9,6.6463
4627.3,6.6489
4627.7,6.6516
4628.1,6.6543
4628.5,6.6571
4628.9,6.6599
4629.3,6.6628
4629.7,6.6658
4630.1,6.6689
4630.5,6.672
4630.9,6.6752
4631.3,6.6784
4631.7,6.6817
4632.1,6.6851
4632.5,6.6886
4632.9,6.6921
4633.3,6.6958
4633.7,6.6995
4634.1,6.7033
4634.5,6.7071
4634.9,6.7111
4635.3,6.7151
4635.7,6.7192
4636.1,6.7235
4636.5,6.7278
4636.9,6.7322
4637.3,6.7367
4637.7,6.7413
4638.1,6.746
4638.5,6.7508
4638.9,6.7557
4639.3,6.7607
4639.7,6.7658
4640.1,6.771
4640.5,6.7764
4640.9,6.7819
4641.3,6.7874
4641.7,6.7931
4642.1,6.799
4642.5,6.8049
4642.9,6.811
4643.3,6.8172
4643.7,6.8235
4644.1,6.83
4644.5,6.8366
4644.9,6.8433
4645.3,6.8502
4645.7,6.8573
4646.1,6.8645
4646.5,6.8718
4646.9,6.8793
4647.3,6.8869
4647.7,6.8947
4648.1,6.9027
4648.5,6.9109
4648.9,6.9192
4649.3,6.9276
4649.7,6.9363
4650.1,6.9451
4650.5,6.9541
4650.9,6.9634
4651.3,6.9727
4651.7,6.9823
4652.1,6.9921
4652.5,7.0021
4652.9,7.0123
4653.3,7.0227
4653.7,7.0332
4654.1,7.0441
4654.5,7.0551
4654.9,7.0663
4655.3,7.0778
4655.7,7.0895
4656.1,7.1014
4656.5,7.1136
4656.9,7.126
4657.3,7.1387
4657.7,7.1516
4658.1,7.1647
4658.5,7.1781
4658.9,7.1918
4659.3,7.2057
4659.7,7.22
4660.1,7.2344
4660.5,7.2492
4660.9,7.2642
4661.3,7.2796
4661.7,7.2952
4662.1,7.3111
4662.5,7.3273
4662.9,7.3438
4663.3,7.3606
4663.7,7.3778
4664.1,7.3953
4664.5,7.413
4664.9,7.4312
4665.3,7.4496
4665.7,7.4684
4666.1,7.4875
4666.5,7.507
4666.9,7.5269
4667.3,7.547
4667.7,7.5676
4668.1,7.5885
4668.5,7.6098
4668.9,7.6315
4669.3,7.6536
4669.7,7.6761
4670.1,7.6989
4670.5,7.7222
4670.9,7.7458
4671.3,7.7699
4671.7,7.7944
4672.1,7.8193
4672.5,7.8447
4672.9,7.8705
4673.3,7.8967
4673.7,7.9234
4674.1,7.9505
4674.5,7.9781
4674.9,8.0061
4675.3,8.0346
4675.7,8.0636
4676.1,8.0931
4676.5,8.123
4676.9,8.1535
4677.3,8.1844
4677.7,8.2159
4678.1,8.2478
4678.5,8.2803
4678.9,8.3133
4679.3,8.3469
4679.7,8.3809
4680.1,8.4155
4680.5,8.4507
4680.9,8.4864
4681.3,8.5227
4681.7,8.5595
4682.1,8.5969
4682.5,8.6349
4682.9,8.6734
4683.3,8.7126
4683.7,8.7523
4684.1,8.7927
4684.5,8.8336
4684.9,8.8752
4685.3,8.9174
4685.7,8.9602
4686.1,9.0037
4686.5,9.0478
4686.9,9.0925
4687.3,9.1379
4687.7,9.1839
4688.1,9.2306
4688.5,9.278
4688.9,9.3261
4689.3,9.3748
4689.7,9.4242
4690.1,9.4743
4690.5,9.5251
4690.9,9.5766
4691.3,9.6289
4691.7,9.6818
4692.1,9.7355
4692.5,9.7898
4692.9,9.845
4693.3,9.9008
4693.7,9.9574
4694.1,10.015
4694.5,10.073
4694.9,10.132
4695.3,10.191
4695.7,10.252
4696.1,10.313
4696.5,10.375
4696.9,10.438
4697.3,10.501
4697.7,10.566
4698.1,10.631
4698.5,10.697
4698.9,10.763
4699.3,10.831
4699.7,10.899
4700.1,10.969
4700.5,11.039
4700.9,11.11
4701.3,11.181
4701.7,11.254
4702.1,11.327
4702.5,11.402
4702.9,11.477
4703.3,11.553
4703.7,11.63
4704.1,11.707
4704.5,11.786
4704.9,11.865
4705.3,11.946
4705.7,12.027
4706.1,12.109
4706.5,12.192
4706.9,12.276
4707.3,12.361
4707.7,12.446
4708.1,12.533
4708.5,12.62
4708.9,12.709
4709.3,12.798
4709.7,12.888
4710.1,12.979
4710.5,13.071
4710.9,13.164
4711.3,13.258
4711.7,13.352
4712.1,13.448
4712.5,13.544
4712.9,13.642
4713.3,13.74
4713.7,13.839
4714.1,13.94
4714.5,14.041
4714.9,14.143
4715.3,14.245
4715.7,14.349
4716.1,14.454
4716.5,14.56
4716.9,14.666
4717.3,14.773
4717.7,14.882
4718.1,14.991
4718.5,15.101
4718.9,15.212
4719.3,15.324
4719.7,15.437
4720.1,15.551
4720.5,15.665
4720.9,15.781
4721.3,15.897
4721.7,16.014
4722.1,16.132
4722.5,16.251
4722.9,16.371
4723.3,16.492
4723.7,16.613
4724.1,16.736
4724.5,16.859
4724.9,16.983
4725.3,17.108
4725.7,17.233
4726.1,17.36
4726.5,17.487
4726.9,17.615
4727.3,17.744
4727.7,17.874
4728.1,18.005
4728.5,18.136
4728.9,18.268
4729.3,18.401
4729.7,18.534
4730.1,18.669
4730.5,18.804
4730.9,18.939
4731.3,19.076
4731.7,19.213
4732.1,19.351
4732.5,19.49
4732.9,19.629
4733.3,19.769
4733.7,19.909
4734.1,20.051
4734.5,20.192
4734.9,20.335
4735.3,20.478
4735.7,20.622
4736.1,20.766
4736.5,20.911
4736.9,21.056
4737.3,21.202
4737.7,21.349
4738.1,21.496
4738.5,21.643
4738.9,21.791
4739.3,21.94
4739.7,22.089
4740.1,22.238
4740.5,22.388
4740.9,22.538
4741.3,22.689
4741.7,22.84
4742.1,22.991
4742.5,23.143
4742.9,23.295
4743.3,23.447
4743.7,23.6
4744.1,23.753
4744.5,23.906
4744.9,24.06
4745.3,24.214
4745.7,24.368
4746.1,24.522
4746.5,24.677
4746.9,24.831
4747.3,24.986
4747.7,25.141
4748.1,25.296
4748.5,25.451
4748.9,25.606
4749.3,25.761
4749.7,25.916
4750.1,26.072
4750.5,26.227
4750.9,26.382
4751.3,26.537
4751.7,26.692
4752.1,26.847
4752.5,27.002
4752.9,27.157
4753.3,27.312
4753.7,27.466
4754.1,27.621
4754.5,27.775
4754.9,27.929
4755.3,28.082
4755.7,28.235
4756.1,28.389
4756.5,28.541
4756.9,28.694
4757.3,28.846
4757.7,28.997
4758.1,29.149
4758.5,29.299
4758.9,29.45
4759.3,29.6
4759.7,29.749
4760.1,29.898
4760.5,30.046
4760.9,30.194
4761.3,30.341
4761.7,30.488
4762.1,30.634
4762.5,30.779
4762.9,30.924
4763.3,31.068
4763.7,31.211
4764.1,31.353
4764.5,31.495
4764.9,31.636
4765.3,31.776
4765.7,31.915
4766.1,32.054
4766.5,32.191
4766.9,32.328
4767.3,32.464
4767.7,32.599
4768.1,32.732
4768.5,32.865
4768.9,32.997
4769.3,33.128
4769.7,33.258
4770.1,33.386
4770.5,33.514
4770.9,33.64
4771.3,33.766
4771.7,33.89
4772.1,34.013
4772.5,34.135
4772.9,34.255
4773.3,34.375
4773.7,34.493
4774.1,34.609
4774.5,34.725
4774.9,34.839
4775.3,34.952
4775.7,35.063
4776.1,35.173
4776.5,35.282
4776.9,35.389
4777.3,35.495
4777.7,35.599
4778.1,35.702
4778.5,35.803
4778.9,35.903
4779.3,36.001
4779.7,36.098
4780.1,36.193
4780.5,36.287
4780.9,36.379
4781.3,36.469
4781.7,36.558
4782.1,36.645
4782.5,36.73
4782.9,36.814
4783.3,36.896
4783.7,36.976
4784.1,37.054
4784.5,37.131
4784.9,37.206
4785.3,37.28
4785.7,37.351
4786.1,37.421
4786.5,37.489
4786.9,37.555
4787.3,37.619
4787.7,37.681
4788.1,37.742
4788.5,37.8
4788.9,37.857
4789.3,37.912
4789.7,37.965
4790.1,38.016
4790.5,38.065
4790.9,38.112
4791.3,38.157
4791.7,38.2
4792.1,38.242
4792.5,38.281
4792.9,38.318
4793.3,38.354
4793.7,38.387
4794.1,38.419
4794.5,38.448
4794.9,38.475
4795.3,38.501
4795.7,38.524
4796.1,38.545
4796.5,38.565
4796.9,38.582
4797.3,38.597
4797.7,38.611
4798.1,38.622
4798.5,38.631
4798.9,38.638
4799.3,38.643
4799.7,38.646
4800.1,38.647
4800.5,38.646
4800.9,38.643
4801.3,38.638
4801.7,38.631
4802.1,38.621
4802.5,38.61
4802.9,38.597
4803.3,38.581
4803.7,38.564
4804.1,38.545
4804.5,38.523
4804.9,38.5
4805.3,38.474
4805.7,38.447
4806.1,38.418
4806.5,38.386
4806.9,38.353
4807.3,38.317
4807.7,38.28
4808.1,38.24
4808.5,38.199
4808.9,38.156
4809.3,38.111
4809.7,38.063
4810.1,38.014
4810.5,37.963
4810.9,37.91
4811.3,37.855
4811.7,37.799
4812.1,37.74
4812.5,37.68
4812.9,37.617
4813.3,37.553
4813.7,37.487
4814.1,37.419
4814.5,37.35
4814.9,37.278
4815.3,37.205
4815.7,37.13
4816.1,37.053
4816.5,36.975
4816.9,36.894
4817.3,36.812
4817.7,36.729
4818.1,36.644
4818.5,36.557
4818.9,36.468
4819.3,36.378
4819.7,36.286
4820.1,36.192
4820.5,36.097
4820.9,36.001
4821.3,35.903
4821.7,35.803
4822.1,35.702
4822.5,35.599
4822.9,35.495
4823.3,35.389
4823.7,35.282
4824.1,35.174
4824.5,35.064
4824.9,34.953
4825.3,34.84
4825.7,34.726
4826.1,34.611
4826.5,34.495
4826.9,34.377
4827.3,34.258
4827.7,34.137
4828.1,34.016
4828.5,33.893
4828.9,33.769
4829.3,33.644
4829.7,33.518
4830.1,33.391
4830.5,33.262
4830.9,33.133
4831.3,33.002
4831.7,32.871
4832.1,32.738
4832.5,32.605
4832.9,32.471
4833.3,32.335
4833.7,32.199
4834.1,32.062
4834.5,31.924
4834.9,31.785
4835.3,31.645
4835.7,31.505
4836.1,31.363
4836.5,31.221
4836.9,31.078
4837.3,30.935
4837.7,30.791
4838.1,30.646
4838.5,30.5
4838.9,30.354
4839.3,30.208
4839.7,30.06
4840.1,29.913
4840.5,29.764
4840.9,29.615
4841.3,29.466
4841.7,29.316
4842.1,29.166
4842.5,29.015
4842.9,28.864
4843.3,28.713
4843.7,28.561
4844.1,28.409
4844.5,28.257
4844.9,28.104
4845.3,27.951
4845.7,27.798
4846.1,27.644
4846.5,27.491
4846.9,27.337
4847.3,27.183
4847.7,27.029
4848.1,26.874
4848.5,26.72
4848.9,26.566
4849.3,26.411
4849.7,26.257
4850.1,26.102
4850.5,25.948
4850.9,25.793
4851.3,25.639
4851.7,25.484
4852.1,25.33
4852.5,25.176
4852.9,25.022
4853.3,24.868
4853.7,24.714
4854.1,24.561
4854.5,24.407
4854.9,24.254
4855.3,24.101
4855.7,23.948
4856.1,23.796
4856.5,23.644
4856.9,23.492
4857.3,23.34
4857.7,23.189
4858.1,23.038
4858.5,22.888
4858.9,22.737
4859.3,22.588
4859.7,22.438
4860.1,22.289
4860.5,22.141
4860.9,21.993
4861.3,21.845
4861.7,21.698
4862.1,21.552
4862.5,21.406
4862.9,21.26
4863.3,21.115
4863.7,20.971
4864.1,20.827
4864.5,20.684
4864.9,20.541
4865.3,20.399
4865.7,20.257
4866.1,20.116
4866.5,19.976
4866.9,19.837
4867.3,19.698
4867.7,19.559
4868.1,19.422
4868.5,19.285
4868.9,19.149
4869.3,19.013
4869.7,18.879
4870.1,18.745
4870.5,18.611
4870.9,18.479
4871.3,18.347
4871.7,18.216
4872.1,18.086
4872.5,17.956
4872.9,17.828
4873.3,17.7
4873.7,17.573
4874.1,17.446
4874.5,17.321
4874.9,17.196
4875.3,17.072
4875.7,16.949
4876.1,16.827
4876.5,16.706
4876.9,16.586
4877.3,16.466
4877.7,16.347
4878.1,16.229
4878.5,16.112
4878.9,15.996
4879.3,15.881
4879.7,15.767
4880.1,15.653
4880.5,15.54
4880.9,15.429
4881.3,15.318
4881.7,15.208
4882.1,15.099
4882.5,14.991
4882.9,14.884
4883.3,14.777
4883.7,14.672
4884.1,14.567
4884.5,14.464
4884.9,14.361
4885.3,14.259
4885.7,14.158
4886.1,14.059
4886.5,13.959
4886.9,13.861
4887.3,13.764
4887.7,13.668
4888.1,13.572
4888.5,13.478
4888.9,13.384
4889.3,13.292
4889.7,13.2
4890.1,13.109
4890.5,13.019
4890.9,12.93
4891.3,12.842
4891.7,12.755
4892.1,12.668
4892.5,12.583
4892.9,12.498
4893.3,12.415
4893.7,12.332
4894.1,12.25
4894.5,12.169
4894.9,12.089
4895.3,12.01
4895.7,11.931
4896.1,11.854
4896.5,11.777
4896.9,11.701
4897.3,11.626
4897.7,11.552
4898.1,11.479
4898.5,11.407
4898.9,11.335
4899.3,11.265
4899.7,11.195
4900.1,11.126
4900.5,11.058
4900.9,10.99
4901.3,10.924
4901.7,10.858
4902.1,10.793
4902.5,10.729
4902.9,10.666
4903.3,10.603
4903.7,10.542
4904.1,10.481
4904.5,10.42
4904.9,10.361
4905.3,10.302
4905.7,10.245
4906.1,10.188
4906.5,10.131
4906.9,10.076
4907.3,10.021
4907.7,9.9668
4908.1,9.9134
4908.5,9.8607
4908.9,9.8088
4909.3,9.7576
4909.7,9.7071
4910.1,9.6573
4910.5,9.6082
4910.9,9.5598
4911.3,9.5121
4911.7,9.465
4912.1,9.4187
4912.5,9.373
4912.9,9.3279
4913.3,9.2835
4913.7,9.2398
4914.1,9.1967
4914.5,9.1542
4914.9,9.1124
4915.3,9.0711
4915.7,9.0306
4916.1,8.9906
4916.5,8.9512
4916.9,8.9124
4917.3,8.8742
4917.7,8.8366
4918.1,8.7996
4918.5,8.7632
4918.9,8.7273
4919.3,8.692
4919.7,8.6572
4920.1,8.623
4920.5,8.5894
4920.9,8.5562
4921.3,8.5236
4921.7,8.4916
4922.1,8.46
4922.5,8.429
4922.9,8.3985
4923.3,8.3685
4923.7,8.3389
4924.1,8.3099
4924.5,8.2814
4924.9,8.2533
4925.3,8.2257
4925.7,8.1986
4926.1,8.1719
4926.5,8.1457
4926.9,8.1199
4927.3,8.0946
4927.7,8.0697
4928.1,8.0453
4928.5,8.0213
4928.9,7.9977
4929.3,7.9745
4929.7,7.9517
4930.1,7.9293
4930.5,7.9073
4930.9,7.8858
4931.3,7.8646
4931.7,7.8438
4932.1,7.8234
4932.5,7.8033
4932.9,7.7836
4933.3,7.7643
4933.7,7.7453
4934.1,7.7267
4934.5,7.7084
4934.9,7.6905
4935.3,7.6729
4935.7,7.6557
4936.1,7.6387
4936.5,7.6221
4936.9,7.6058
4937.3,7.5898
4937.7,7.5742
4938.1,7.5588
4938.5,7.5437
4938.9,7.529
4939.3,7.5145
4939.7,7.5003
4940.1,7.4863
4940.5,7.4727
4940.9,7.4593
4941.3,7.4462
4941.7,7.4334
4942.1,7.4208
4942.5,7.4085
4942.9,7.3964
4943.3,7.3846
4943.7,7.373
4944.1,7.3616
4944.5,7.3505
4944.9,7.3396
4945.3,7.329
4945.7,7.3185
4946.1,7.3083
4946.5,7.2983
4946.9,7.2885
4947.3,7.2789
4947.7,7.2696
4948.1,7.2604
4948.5,7.2514
4948.9,7.2426
4949.3,7.234
4949.7,7.2256
4950.1,7.2174
4950.5,7.2094
4950.9,7.2015
4951.3,7.1938
4951.7,7.1863
4952.1,7.1789
4952.5,7.1718
4952.9,7.1647
4953.3,7.1579
4953.7,7.1512
4954.1,7.1446
4954.5,7.1382
4954.9,7.1319
4955.3,7.1258
4955.7,7.1199
4956.1,7.114
4956.5,7.1083
4956.9,7.1028
4957.3,7.0973
4957.7,7.092
4958.1,7.0869
4958.5,7.0818
4958.9,7.0769
4959.3,7.0721
4959.7,7.0674
4960.1,7.0628
4960.5,7.0583
4960.9,7.054
4961.3,7.0497
4961.7,7.0456
4962.1,7.0415
4962.5,7.0376
4962.9,7.0337
4963.3,7.03
4963.7,7.0264
4964.1,7.0228
4964.5,7.0193
4964.9,7.016
4965.3,7.0127
4965.7,7.0095
4966.1,7.0064
4966.5,7.0033
4966.9,7.0004
4967.3,6.9975
4967.7,6.9947
4968.1,6.992
4968.5,6.9893
4968.9,6.9868
4969.3,6.9842
4969.7,6.9818
4970.1,6.9794
4970.5,6.9771
4970.9,6.9749
4971.3,6.9727
4971.7,6.9706
4972.1,6.9686
4972.5,6.9666
4972.9,6.9646
4973.3,6.9628
4973.7,6.9609
4974.1,6.9592
4974.5,6.9574
4974.9,6.9558
4975.3,6.9542
4975.7,6.9526
4976.1,6.9511
4976.5,6.9496
4976.9,6.9482
4977.3,6.9468
4977.7,6.9455
4978.1,6.9442
4978.5,6.9429
4978.9,6.9417
4979.3,6.9406
4979.7,6.9394
4980.1,6.9383
4980.5,6.9373
4980.9,6.9363
4981.3,6.9353
4981.7,6.9343
4982.1,6.9334
4982.5,6.9325
4982.9,6.9317
4983.3,6.9309
4983.7,6.9301
4984.1,6.9293
4984.5,6.9286
4984.9,6.9279
4985.3,6.9272
4985.7,6.9266
4986.1,6.9259
4986.5,6.9253
4986.9,6.9248
4987.3,6.9242
4987.7,6.9237
4988.1,6.9232
4988.5,6.9227
4988.9,6.9223
4989.3,6.9218
4989.7,6.9214
4990.1,6.921
4990.5,6.9207
4990.9,6.9203
4991.3,6.92
4991.7,6.9197
4992.1,6.9194
4992.5,6.9191
4992.9,6.9188
4993.3,6.9186
4993.7,6.9184
4994.1,6.9182
4994.5,6.918
4994.9,6.9178
4995.3,6.9176
4995.7,6.9175
4996.1,6.9173
4996.5,6.9172
4996.9,6.9171
4997.3,6.917
4997.7,6.9169
4998.1,6.9168
4998.5,6.9167
4998.9,6.9167
4999.3,6.9166
4999.7,6.9166
5000.1,6.9166
5000.5,6.9166
5000.9,6.9166
5001.3,6.9166
5001.7,6.9166
5002.1,6.9166
5002.5,6.9167
5002.9,6.9167
5003.3,6.9168
5003.7,6.9168
5004.1,6.9169
5004.5,6.917
5004.9,6.9171
5005.3,6.9172
5005.7,6.9173
5006.1,6.9174
5006.5,6.9175
5006.9,6.9176
5007.3,6.9177
5007.7,6.9179
5008.1,6.918
5008.5,6.9182
5008.9,6.9183
5009.3,6.9185
5009.7,6.9186
5010.1,6.9188
5010.5,6.919
5010.9,6.9192
5011.3,6.9194
5011.7,6.9196
5012.1,6.9197
5012.5,6.92
5012.9,6.9202
5013.3,6.9204
5013.7,6.9206
5014.1,6.9208
5014.5,6.921
5014.9,6.9213
5015.3,6.9215
5015.7,6.9217
5016.1,6.922
5016.5,6.9222
5016.9,6.9225
5017.3,6.9227
5017.7,6.923
5018.1,6.9233
5018.5,6.9235
5018.9,6.9238
5019.3,6.9241
5019.7,6.9244
5020.1,6.9246
5020.5,6.9249
5020.9,6.9252
5021.3,6.9255
5021.7,6.9258
5022.1,6.9261
5022.5,6.9264
5022.9,6.9268
5023.3,6.9271
5023.7,6.9274
5024.1,6.9277
5024.5,6.9281
5024.9,6.9284
5025.3,6.9287
5025.7,6.9291
5026.1,6.9294
5026.5,6.9298
5026.9,6.9301
5027.3,6.9305
5027.7,6.9309
5028.1,6.9312
5028.5,6.9316
5028.9,6.932
5029.3,6.9324
5029.7,6.9328
5030.1,6.9332
5030.5,6.9336
5030.9,6.934
5031.3,6.9344
5031.7,6.9348
5032.1,6.9353
5032.5,6.9357
5032.9,6.9361
5033.3,6.9366
5033.7,6.9371
5034.1,6.9375
5034.5,6.938
5034.9,6.9385
5035.3,6.939
5035.7,6.9395
5036.1,6.94
5036.5,6.9405
5036.9,6.941
5037.3,6.9415
5037.7,6.9421
5038.1,6.9426
5038.5,6.9432
5038.9,6.9438
5039.3,6.9444
5039.7,6.945
5040.1,6.9456
5040.5,6.9462
5040.9,6.9469
5041.3,6.9475
5041.7,6.9482
5042.1,6.9488
5042.5,6.9495
5042.9,6.9502
5043.3,6.951
5043.7,6.9517
5044.1,6.9525
5044.5,6.9532
5044.9,6.954
5045.3,6.9548
5045.7,6.9557
5046.1,6.9565
5046.5,6.9574
5046.9,6.9583
5047.3,6.9592
5047.7,6.9601
5048.1,6.9611
5048.5,6.9621
5048.9,6.9631
5049.3,6.9641
5049.7,6.9652
5050.1,6.9662
5050.5,6.9673
5050.9,6.9685
5051.3,6.9697
5051.7,6.9709
5052.1,6.9721
5052.5,6.9734
5052.9,6.9747
5053.3,6.976
5053.7,6.9774
5054.1,6.9788
5054.5,6.9802
5054.9,6.9817
5055.3,6.9832
5055.7,6.9848
5056.1,6.9864
5056.5,6.988
5056.9,6.9897
5057.3,6.9915
5057.7,6.9933
5058.1,6.9951
5058.5,6.997
5058.9,6.999
5059.3,7.001
5059.7,7.003
5060.1,7.0051
5060.5,7.0073
5060.9,7.0096
5061.3,7.0119
5061.7,7.0142
5062.1,7.0166
5062.5,7.0191
5062.9,7.0217
5063.3,7.0243
5063.7,7.0271
5064.1,7.0299
5064.5,7.0327
5064.9,7.0357
5065.3,7.0387
5065.7,7.0418
5066.1,7.045
5066.5,7.0483
5066.9,7.0517
5067.3,7.0552
5067.7,7.0588
5068.1,7.0625
5068.5,7.0662
5068.9,7.0701
5069.3,7.0741
5069.7,7.0782
5070.1,7.0825
5070.5,7.0868
5070.9,7.0913
5071.3,7.0959
5071.7,7.1006
5072.1,7.1054
5072.5,7.1104
5072.9,7.1155
5073.3,7.1207
5073.7,7.1261
5074.1,7.1317
5074.5,7.1374
5074.9,7.1432
5075.3,7.1492
5075.7,7.1554
5076.1,7.1617
5076.5,7.1682
5076.9,7.1749
5077.3,7.1817
5077.7,7.1888
5078.1,7.196
5078.5,7.2034
5078.9,7.211
5079.3,7.2188
5079.7,7.2268
5080.1,7.235
5080.5,7.2435
5080.9,7.2521
5081.3,7.261
5081.7,7.2701
5082.1,7.2794
5082.5,7.289
5082.9,7.2988
5083.3,7.3089
5083.7,7.3192
5084.1,7.3298
5084.5,7.3407
5084.9,7.3518
5085.3,7.3632
5085.7,7.3749
5086.1,7.3868
5086.5,7.3991
5086.9,7.4117
5087.3,7.4246
5087.7,7.4378
5088.1,7.4513
5088.5,7.4651
5088.9,7.4793
5089.3,7.4938
5089.7,7.5087
5090.1,7.5239
5090.5,7.5394
5090.9,7.5554
5091.3,7.5717
5091.7,7.5884
5092.1,7.6055
5092.5,7.6229
5092.9,7.6408
5093.3,7.6591
5093.7,7.6778
5094.1,7.6969
5094.5,7.7165
5094.9,7.7365
5095.3,7.7569
5095.7,7.7778
5096.1,7.7992
5096.5,7.8211
5096.9,7.8434
5097.3,7.8662
5097.7,7.8895
5098.1,7.9133
5098.5,7.9376
5098.9,7.9625
5099.3,7.9878
5099.7,8.0137
5100.1,8.0402
5100.5,8.0672
5100.9,8.0948
5101.3,8.1229
5101.7,8.1516
5102.1,8.1809
5102.5,8.2109
5102.9,8.2414
5103.3,8.2725
5103.7,8.3043
5104.1,8.3366
5104.5,8.3697
5104.9,8.4034
5105.3,8.4377
5105.7,8.4727
5106.1,8.5084
5106.5,8.5448
5106.9,8.5818
5107.3,8.6196
5107.7,8.6581
5108.1,8.6973
5108.5,8.7373
5108.9,8.7779
5109.3,8.8194
5109.7,8.8616
5110.1,8.9045
5110.5,8.9483
5110.9,8.9928
5111.3,9.0381
5111.7,9.0842
5112.1,9.1311
5112.5,9.1789
5112.9,9.2275
5113.3,9.2769
5113.7,9.3271
5114.1,9.3782
5114.5,9.4302
5114.9,9.4831
5115.3,9.5368
5115.7,9.5914
5116.1,9.6469
5116.5,9.7033
5116.9,9.7606
5117.3,9.8188
5117.7,9.878
5118.1,9.9381
5118.5,9.9991
5118.9,10.061
5119.3,10.124
5119.7,10.188
5120.1,10.253
5120.5,10.319
5120.9,10.385
5121.3,10.453
5121.7,10.522
5122.1,10.592
5122.5,10.663
5122.9,10.734
5123.3,10.807
5123.7,10.881
5124.1,10.956
5124.5,11.032
5124.9,11.109
5125.3,11.187
5125.7,11.266
5126.1,11.346
5126.5,11.427
5126.9,11.509
5127.3,11.592
5127.7,11.676
5128.1,11.762
5128.5,11.848
5128.9,11.935
5129.3,12.024
5129.7,12.114
5130.1,12.204
5130.5,12.296
5130.9,12.389
5131.3,12.482
5131.7,12.577
5132.1,12.673
5132.5,12.77
5132.9,12.869
5133.3,12.968
5133.7,13.068
5134.1,13.169
5134.5,13.272
5134.9,13.375
5135.3,13.479
5135.7,13.585
5136.1,13.691
5136.5,13.799
5136.9,13.908
5137.3,14.017
5137.7,14.128
5138.1,14.24
5138.5,14.352
5138.9,14.466
5139.3,14.581
5139.7,14.696
5140.1,14.813
5140.5,14.93
5140.9,15.049
5141.3,15.169
5141.7,15.289
5142.1,15.41
5142.5,15.533
5142.9,15.656
5143.3,15.78
5143.7,15.905
5144.1,16.031
5144.5,16.158
5144.9,16.285
5145.3,16.414
5145.7,16.543
5146.1,16.673
5146.5,16.804
5146.9,16.935
5147.3,17.067
5147.7,17.201
5148.1,17.334
5148.5,17.469
5148.9,17.604
5149.3,17.74
5149.7,17.876
5150.1,18.013
5150.5,18.151
5150.9,18.29
5151.3,18.428
5151.7,18.568
5152.1,18.708
5152.5,18.848
5152.9,18.989
5153.3,19.131
5153.7,19.273
5154.1,19.415
5154.5,19.558
5154.9,19.701
5155.3,19.844
5155.7,19.988
5156.1,20.132
5156.5,20.276
5156.9,20.42
5157.3,20.565
5157.7,20.71
5158.1,20.855
5158.5,21
5158.9,21.146
5159.3,21.291
5159.7,21.436
5160.1,21.582
5160.5,21.727
5160.9,21.873
5161.3,22.018
5161.7,22.163
5162.1,22.308
5162.5,22.453
5162.9,22.598
5163.3,22.743
5163.7,22.887
5164.1,23.031
5164.5,23.175
5164.9,23.318
5165.3,23.461
5165.7,23.604
5166.1,23.746
5166.5,23.887
5166.9,24.029
5167.3,24.169
5167.7,24.309
5168.1,24.449
5168.5,24.587
5168.9,24.726
5169.3,24.863
5169.7,25
5170.1,25.136
5170.5,25.271
5170.9,25.405
5171.3,25.539
5171.7,25.671
5172.1,25.803
5172.5,25.933
5172.9,26.063
5173.3,26.192
5173.7,26.319
5174.1,26.446
5174.5,26.571
5174.9,26.695
5175.3,26.818
5175.7,26.94
5176.1,27.06
5176.5,27.179
5176.9,27.297
5177.3,27.414
5177.7,27.529
5178.1,27.643
5178.5,27.755
5178.9,27.866
5179.3,27.975
5179.7,28.083
5180.1,28.189
5180.5,28.294
5180.9,28.397
5181.3,28.498
5181.7,28.598
5182.1,28.696
5182.5,28.792
5182.9,28.886
5183.3,28.979
5183.7,29.07
5184.1,29.159
5184.5,29.246
5184.9,29.331
5185.3,29.415
5185.7,29.496
5186.1,29.575
5186.5,29.653
5186.9,29.728
5187.3,29.802
5187.7,29.873
5188.1,29.942
5188.5,30.01
5188.9,30.075
5189.3,30.138
5189.7,30.199
5190.1,30.257
5190.5,30.314
5190.9,30.368
5191.3,30.42
5191.7,30.47
5192.1,30.518
5192.5,30.563
5192.9,30.606
5193.3,30.647
5193.7,30.686
5194.1,30.722
5194.5,30.756
5194.9,30.787
5195.3,30.816
5195.7,30.843
5196.1,30.868
5196.5,30.89
5196.9,30.91
5197.3,30.927
5197.7,30.942
5198.1,30.955
5198.5,30.965
5198.9,30.973
5199.3,30.979
5199.7,30.982
5200.1,30.982
5200.5,30.981
5200.9,30.977
5201.3,30.97
5201.7,30.961
5202.1,30.95
5202.5,30.937
5202.9,30.921
5203.3,30.902
5203.7,30.881
5204.1,30.858
5204.5,30.833
5204.9,30.805
5205.3,30.775
5205.7,30.742
5206.1,30.708
5206.5,30.67
5206.9,30.631
5207.3,30.589
5207.7,30.545
5208.1,30.499
5208.5,30.451
5208.9,30.4
5209.3,30.347
5209.7,30.292
5210.1,30.234
5210.5,30.175
5210.9,30.113
5211.3,30.049
5211.7,29.983
5212.1,29.915
5212.5,29.845
5212.9,29.773
5213.3,29.699
5213.7,29.623
5214.1,29.545
5214.5,29.464
5214.9,29.382
5215.3,29.298
5215.7,29.212
5216.1,29.125
5216.5,29.035
5216.9,28.943
5217.3,28.85
5217.7,28.755
5218.1,28.658
5218.5,28.56
5218.9,28.46
5219.3,28.358
5219.7,28.254
5220.1,28.149
5220.5,28.043
5220.9,27.934
5221.3,27.825
5221.7,27.713
5222.1,27.601
5222.5,27.487
5222.9,27.371
5223.3,27.254
5223.7,27.136
5224.1,27.017
5224.5,26.896
5224.9,26.774
5225.3,26.651
5225.7,26.526
5226.1,26.401
5226.5,26.274
5226.9,26.146
5227.3,26.018
5227.7,25.888
5228.1,25.757
5228.5,25.625
5228.9,25.493
5229.3,25.359
5229.7,25.225
5230.1,25.09
5230.5,24.954
5230.9,24.817
5231.3,24.68
5231.7,24.542
5232.1,24.403
5232.5,24.264
5232.9,24.124
5233.3,23.983
5233.7,23.842
5234.1,23.701
5234.5,23.559
5234.9,23.416
5235.3,23.274
5235.7,23.131
5236.1,22.987
5236.5,22.843
5236.9,22.699
5237.3,22.555
5237.7,22.411
5238.1,22.266
5238.5,22.122
5238.9,21.977
5239.3,21.832
5239.7,21.687
5240.1,21.542
5240.5,21.397
5240.9,21.252
5241.3,21.107
5241.7,20.962
5242.1,20.818
5242.5,20.673
5242.9,20.529
5243.3,20.385
5243.7,20.241
5244.1,20.097
5244.5,19.954
5244.9,19.811
5245.3,19.668
5245.7,19.526
5246.1,19.384
5246.5,19.242
5246.9,19.101
5247.3,18.96
5247.7,18.82
5248.1,18.68
5248.5,18.541
5248.9,18.403
5249.3,18.265
5249.7,18.127
5250.1,17.99
5250.5,17.854
5250.9,17.718
5251.3,17.583
5251.7,17.449
5252.1,17.315
5252.5,17.182
5252.9,17.05
5253.3,16.919
5253.7,16.788
5254.1,16.658
5254.5,16.529
5254.9,16.401
5255.3,16.274
5255.7,16.147
5256.1,16.021
5256.5,15.896
5256.9,15.772
5257.3,15.649
5257.7,15.527
5258.1,15.406
5258.5,15.285
5258.9,15.166
5259.3,15.048
5259.7,14.93
5260.1,14.813
5260.5,14.698
5260.9,14.583
5261.3,14.47
5261.7,14.357
5262.1,14.246
5262.5,14.135
5262.9,14.025
5263.3,13.917
5263.7,13.809
5264.1,13.703
5264.5,13.597
5264.9,13.493
5265.3,13.39
5265.7,13.287
5266.1,13.186
5266.5,13.086
5266.9,12.987
5267.3,12.889
5267.7,12.792
5268.1,12.696
5268.5,12.601
5268.9,12.507
5269.3,12.414
5269.7,12.323
5270.1,12.232
5270.5,12.143
5270.9,12.054
5271.3,11.967
5271.7,11.88
5272.1,11.795
5272.5,11.711
5272.9,11.628
5273.3,11.546
5273.7,11.465
5274.1,11.385
5274.5,11.306
5274.9,11.228
5275.3,11.151
5275.7,11.075
5276.1,11
5276.5,10.926
5276.9,10.854
5277.3,10.782
5277.7,10.711
5278.1,10.642
5278.5,10.573
5278.9,10.505
5279.3,10.438
5279.7,10.373
5280.1,10.308
5280.5,10.244
5280.9,10.181
5281.3,10.119
5281.7,10.058
5282.1,9.9984
5282.5,9.9393
5282.9,9.8812
5283.3,9.824
5283.7,9.7677
5284.1,9.7123
5284.5,9.6578
5284.9,9.6042
5285.3,9.5515
5285.7,9.4996
5286.1,9.4486
5286.5,9.3985
5286.9,9.3492
5287.3,9.3008
5287.7,9.2531
5288.1,9.2064
5288.5,9.1604
5288.9,9.1152
5289.3,9.0708
5289.7,9.0273
5290.1,8.9845
5290.5,8.9424
5290.9,8.9012
5291.3,8.8606
5291.7,8.8209
5292.1,8.7818
5292.5,8.7435
5292.9,8.7059
5293.3,8.669
5293.7,8.6329
5294.1,8.5974
5294.5,8.5626
5294.9,8.5284
5295.3,8.4949
5295.7,8.4621
5296.1,8.4299
5296.5,8.3984
5296.9,8.3675
5297.3,8.3372
5297.7,8.3075
5298.1,8.2784
5298.5,8.2499
5298.9,8.222
5299.3,8.1947
5299.7,8.1679
5300.1,8.1417
5300.5,8.116
5300.9,8.0909
5301.3,8.0663
5301.7,8.0423
5302.1,8.0187
5302.5,7.9957
5302.9,7.9731
5303.3,7.9511
5303.7,7.9295
5304.1,7.9084
5304.5,7.8878
5304.9,7.8676
5305.3,7.8479
5305.7,7.8286
5306.1,7.8098
5306.5,7.7914
5306.9,7.7734
5307.3,7.7558
5307.7,7.7387
5308.1,7.7219
5308.5,7.7055
5308.9,7.6895
5309.3,7.6739
5309.7,7.6586
5310.1,7.6437
5310.5,7.6292
5310.9,7.615
5311.3,7.6012
5311.7,7.5877
5312.1,7.5745
5312.5,7.5616
5312.9,7.5491
5313.3,7.5369
5313.7,7.5249
5314.1,7.5133
5314.5,7.502
5314.9,7.4909
5315.3,7.4801
5315.7,7.4696
5316.1,7.4594
5316.5,7.4494
5316.9,7.4397
5317.3,7.4303
5317.7,7.4211
5318.1,7.4121
5318.5,7.4034
5318.9,7.3949
5319.3,7.3866
5319.7,7.3785
5320.1,7.3707
5320.5,7.363
5320.9,7.3556
5321.3,7.3484
5321.7,7.3414
5322.1,7.3345
5322.5,7.3279
5322.9,7.3214
5323.3,7.3151
5323.7,7.309
5324.1,7.3031
5324.5,7.2973
5324.9,7.2917
5325.3,7.2863
5325.7,7.281
5326.1,7.2758
5326.5,7.2709
5326.9,7.266
5327.3,7.2613
5327.7,7.2567
5328.1,7.2523
5328.5,7.248
5328.9,7.2438
5329.3,7.2398
5329.7,7.2358
5330.1,7.232
5330.5,7.2283
5330.9,7.2248
5331.3,7.2213
5331.7,7.2179
5332.1,7.2147
5332.5,7.2115
5332.9,7.2084
5333.3,7.2055
5333.7,7.2026
5334.1,7.1998
5334.5,7.1971
5334.9,7.1945
5335.3,7.192
5335.7,7.1895
5336.1,7.1872
5336.5,7.1849
5336.9,7.1827
5337.3,7.1805
5337.7,7.1785
5338.1,7.1765
5338.5,7.1745
5338.9,7.1727
5339.3,7.1709
5339.7,7.1691
5340.1,7.1674
5340.5,7.1658
5340.9,7.1642
5341.3,7.1627
5341.7,7.1613
5342.1,7.1599
5342.5,7.1585
5342.9,7.1572
5343.3,7.1559
5343.7,7.1547
5344.1,7.1536
5344.5,7.1524
5344.9,7.1513
5345.3,7.1503
5345.7,7.1493
5346.1,7.1483
5346.5,7.1474
5346.9,7.1465
5347.3,7.1456
5347.7,7.1448
5348.1,7.144
5348.5,7.1433
5348.9,7.1425
5349.3,7.1418
5349.7,7.1412
5350.1,7.1405
5350.5,7.1399
5350.9,7.1393
5351.3,7.1387
5351.7,7.1382
5352.1,7.1377
5352.5,7.1372
5352.9,7.1367
5353.3,7.1363
5353.7,7.1358
5354.1,7.1354
5354.5,7.1351
5354.9,7.1347
5355.3,7.1343
5355.7,7.134
5356.1,7.1337
5356.5,7.1334
5356.9,7.1331
5357.3,7.1328
5357.7,7.1326
5358.1,7.1323
5358.5,7.1321
5358.9,7.1319
5359.3,7.1317
5359.7,7.1315
5360.1,7.1313
5360.5,7.1312
5360.9,7.131
5361.3,7.1309
5361.7,7.1308
5362.1,7.1306
5362.5,7.1305
5362.9,7.1304
5363.3,7.1303
5363.7,7.1302
5364.1,7.1302
5364.5,7.1301
5364.9,7.13
5365.3,7.13
5365.7,7.13
5366.1,7.1299
5366.5,7.1299
5366.9,7.1299
5367.3,7.1298
5367.7,7.1298
5368.1,7.1298
5368.5,7.1298
5368.9,7.1298
5369.3,7.1298
5369.7,7.1299
5370.1,7.1299
5370.5,7.1299
5370.9,7.1299
5371.3,7.13
5371.7,7.13
5372.1,7.1301
5372.5,7.1301
5372.9,7.1301
5373.3,7.1302
5373.7,7.1303
5374.1,7.1303
5374.5,7.1304
5374.9,7.1304
5375.3,7.1305
5375.7,7.1306
5376.1,7.1307
5376.5,7.1307
5376.9,7.1308
5377.3,7.1309
5377.7,7.131
5378.1,7.1311
5378.5,7.1311
5378.9,7.1312
5379.3,7.1313
5379.7,7.1314
5380.1,7.1315
5380.5,7.1316
5380.9,7.1317
5381.3,7.1318
5381.7,7.1319
5382.1,7.132
5382.5,7.1321
5382.9,7.1322
5383.3,7.1323
5383.7,7.1324
5384.1,7.1325
5384.5,7.1326
5384.9,7.1327
5385.3,7.1328
5385.7,7.133
5386.1,7.1331
5386.5,7.1332
5386.9,7.1333
5387.3,7.1334
5387.7,7.1335
5388.1,7.1336
5388.5,7.1337
5388.9,7.1339
5389.3,7.134
5389.7,7.1341
5390.1,7.1342
5390.5,7.1343
5390.9,7.1344
5391.3,7.1346
5391.7,7.1347
5392.1,7.1348
5392.5,7.1349
5392.9,7.135
5393.3,7.1352
5393.7,7.1353
5394.1,7.1354
5394.5,7.1355
5394.9,7.1356
5395.3,7.1358
5395.7,7.1359
5396.1,7.136
5396.5,7.1361
5396.9,7.1362
5397.3,7.1364
5397.7,7.1365
5398.1,7.1366
5398.5,7.1367
5398.9,7.1368
5399.3,7.137
5399.7,7.1371
5400.1,7.1372
5400.5,7.1373
5400.9,7.1374
5401.3,7.1376
5401.7,7.1377
5402.1,7.1378
5402.5,7.1379
5402.9,7.138
5403.3,7.1382
5403.7,7.1383
5404.1,7.1384
5404.5,7.1385
5404.9,7.1386
5405.3,7.1388
5405.7,7.1389
5406.1,7.139
5406.5,7.1391
5406.9,7.1392
5407.3,7.1394
5407.7,7.1395
5408.1,7.1396
5408.5,7.1397
5408.9,7.1398
5409.3,7.14
5409.7,7.1401
5410.1,7.1402
5410.5,7.1403
5410.9,7.1404
5411.3,7.1405
5411.7,7.1407
5412.1,7.1408
5412.5,7.1409
5412.9,7.141
5413.3,7.1411
5413.7,7.1412
5414.1,7.1414
5414.5,7.1415
5414.9,7.1416
5415.3,7.1417
5415.7,7.1418
5416.1,7.1419
5416.5,7.142
5416.9,7.1422
5417.3,7.1423
5417.7,7.1424
5418.1,7.1425
5418.5,7.1426
5418.9,7.1427
5419.3,7.1428
5419.7,7.143
5420.1,7.1431
5420.5,7.1432
5420.9,7.1433
5421.3,7.1434
5421.7,7.1435
5422.1,7.1436
5422.5,7.1437
5422.9,7.1439
5423.3,7.144
5423.7,7.1441
5424.1,7.1442
5424.5,7.1443
5424.9,7.1444
5425.3,7.1445
5425.7,7.1446
5426.1,7.1447
5426.5,7.1448
5426.9,7.145
5427.3,7.1451
5427.7,7.1452
5428.1,7.1453
5428.5,7.1454
5428.9,7.1455
5429.3,7.1456
5429.7,7.1457
5430.1,7.1458
5430.5,7.1459
5430.9,7.146
5431.3,7.1461
5431.7,7.1462
5432.1,7.1463
5432.5,7.1465
5432.9,7.1466
5433.3,7.1467
5433.7,7.1468
5434.1,7.1469
5434.5,7.147
5434.9,7.1471
5435.3,7.1472
5435.7,7.1473
5436.1,7.1474
5436.5,7.1475
5436.9,7.1476
5437.3,7.1477
5437.7,7.1478
5438.1,7.1479
5438.5,7.148
5438.9,7.1481
5439.3,7.1482
5439.7,7.1483
5440.1,7.1484
5440.5,7.1485
5440.9,7.1486
5441.3,7.1487
5441.7,7.1488
5442.1,7.1489
5442.5,7.149
5442.9,7.1491
5443.3,7.1492
5443.7,7.1493
5444.1,7.1494
5444.5,7.1495
5444.9,7.1496
5445.3,7.1497
5445.7,7.1498
5446.1,7.1499
5446.5,7.15
5446.9,7.1501
5447.3,7.1502
5447.7,7.1503
5448.1,7.1504
5448.5,7.1505
5448.9,7.1506
5449.3,7.1507
5449.7,7.1508
5450.1,7.1509
5450.5,7.1509
5450.9,7.151
5451.3,7.1511
5451.7,7.1512
5452.1,7.1513
5452.5,7.1514
5452.9,7.1515
5453.3,7.1516
5453.7,7.1517
5454.1,7.1518
5454.5,7.1519
5454.9,7.152
5455.3,7.1521
5455.7,7.1522
5456.1,7.1522
5456.5,7.1523
5456.9,7.1524
5457.3,7.1525
5457.7,7.1526
5458.1,7.1527
5458.5,7.1528
5458.9,7.1529
5459.3,7.153
5459.7,7.1531
5460.1,7.1531
5460.5,7.1532
5460.9,7.1533
5461.3,7.1534
5461.7,7.1535
5462.1,7.1536
5462.5,7.1537
5462.9,7.1538
5463.3,7.1538
5463.7,7.1539
5464.1,7.154
5464.5,7.1541
5464.9,7.1542
5465.3,7.1543
5465.7,7.1544
5466.1,7.1544
5466.5,7.1545
5466.9,7.1546
5467.3,7.1547
5467.7,7.1548
5468.1,7.1549
5468.5,7.1549
5468.9,7.155
5469.3,7.1551
5469.7,7.1552
5470.1,7.1553
5470.5,7.1554
5470.9,7.1554
5471.3,7.1555
5471.7,7.1556
5472.1,7.1557
5472.5,7.1558
5472.9,7.1558
5473.3,7.1559
5473.7,7.156
5474.1,7.1561
5474.5,7.1562
5474.9,7.1562
5475.3,7.1563
5475.7,7.1564
5476.1,7.1565
5476.5,7.1566
5476.9,7.1566
5477.3,7.1567
5477.7,7.1568
5478.1,7.1569
5478.5,7.1569
5478.9,7.157
5479.3,7.1571
5479.7,7.1572
5480.1,7.1572
5480.5,7.1573
5480.9,7.1574
5481.3,7.1575
5481.7,7.1576
5482.1,7.1576
5482.5,7.1577
5482.9,7.1578
5483.3,7.1578
5483.7,7.1579
5484.1,7.158
5484.5,7.1581
5484.9,7.1581
5485.3,7.1582
5485.7,7.1583
5486.1,7.1584
5486.5,7.1584
5486.9,7.1585
5487.3,7.1586
5487.7,7.1586
5488.1,7.1587
5488.5,7.1588
5488.9,7.1589
5489.3,7.1589
5489.7,7.159
5490.1,7.1591
5490.5,7.1591
5490.9,7.1592
5491.3,7.1593
5491.7,7.1593
5492.1,7.1594
5492.5,7.1595
5492.9,7.1596
5493.3,7.1596
5493.7,7.1597
5494.1,7.1598
5494.5,7.1598
5494.9,7.1599
5495.3,7.16
5495.7,7.16
5496.1,7.1601
5496.5,7.1602
5496.9,7.1602
5497.3,7.1603
5497.7,7.1603
5498.1,7.1604
5498.5,7.1605
5498.9,7.1605
5499.3,7.1606
5499.7,7.1607
5500.2,7.1607
5500.6,7.1608
5501,7.1609
5501.4,7.1609
5501.8,7.161
5502.2,7.161
5502.6,7.1611
5503,7.1612
5503.4,7.1612
5503.8,7.1613
5504.2,7.1614
5504.6,7.1614
5505,7.1615
5505.4,7.1615
5505.8,7.1616
5506.2,7.1617
5506.6,7.1617
5507,7.1618
5507.4,7.1618
5507.8,7.1619
5508.2,7.162
5508.6,7.162
5509,7.1621
5509.4,7.1621
5509.8,7.1622
5510.2,7.1622
5510.6,7.1623
5511,7.1624
5511.4,7.1624
5511.8,7.1625
5512.2,7.1625
5512.6,7.1626
5513,7.1626
5513.4,7.1627
5513.8,7.1627
5514.2,7.1628
5514.6,7.1629
5515,7.1629
5515.4,7.163
5515.8,7.163
5516.2,7.1631
5516.6,7.1631
5517,7.1632
5517.4,7.1632
5517.8,7.1633
5518.2,7.1633
5518.6,7.1634
5519,7.1634
5519.4,7.1635
5519.8,7.1635
5520.2,7.1636
5520.6,7.1636
5521,7.1637
5521.4,7.1637
5521.8,7.1638
5522.2,7.1638
5522.6,7.1639
5523,7.1639
5523.4,7.164
5523.8,7.164
5524.2,7.1641
5524.6,7.1641
5525,7.1642
5525.4,7.1642
5525.8,7.1643
5526.2,7.1643
5526.6,7.1644
5527,7.1644
5527.4,7.1645
5527.8,7.1645
5528.2,7.1646
5528.6,7.1646
5529,7.1646
5529.4,7.1647
5529.8,7.1647
5530.2,7.1648
5530.6,7.1648
5531,7.1649
5531.4,7.1649
5531.8,7.165
5532.2,7.165
5532.6,7.165
5533,7.1651
5533.4,7.1651
5533.8,7.1652
5534.2,7.1652
5534.6,7.1653
5535,7.1653
5535.4,7.1653
5535.8,7.1654
5536.2,7.1654
5536.6,7.1655
5537,7.1655
5537.4,7.1655
5537.8,7.1656
5538.2,7.1656
5538.6,7.1657
5539,7.1657
5539.4,7.1657
5539.8,7.1658
5540.2,7.1658
5540.6,7.1659
5541,7.1659
5541.4,7.1659
5541.8,7.166
5542.2,7.166
5542.6,7.166
5543,7.1661
5543.4,7.1661
5543.8,7.1661
5544.2,7.1662
5544.6,7.1662
5545,7.1663
5545.4,7.1663
5545.8,7.1663
5546.2,7.1664
5546.6,7.1664
5547,7.1664
5547.4,7.1665
5547.8,7.1665
5548.2,7.1665
5548.6,7.1666
5549,7.1666
5549.4,7.1666
5549.8,7.1667
5550.2,7.1667
5550.6,7.1667
5551,7.1668
5551.4,7.1668
5551.8,7.1668
5552.2,7.1668
5552.6,7.1669
5553,7.1669
5553.4,7.1669
5553.8,7.167
5554.2,7.167
5554.6,7.167
5555,7.1671
5555.4,7.1671
5555.8,7.1671
5556.2,7.1671
5556.6,7.1672
5557,7.1672
5557.4,7.1672
5557.8,7.1672
5558.2,7.1673
5558.6,7.1673
5559,7.1673
5559.4,7.1674
5559.8,7.1674
5560.2,7.1674
5560.6,7.1674
5561,7.1675
5561.4,7.1675
5561.8,7.1675
5562.2,7.1675
5562.6,7.1676
5563,7.1676
5563.4,7.1676
5563.8,7.1676
5564.2,7.1676
5564.6,7.1677
5565,7.1677
5565.4,7.1677
5565.8,7.1677
5566.2,7.1678
5566.6,7.1678
5567,7.1678
5567.4,7.1678
5567.8,7.1678
5568.2,7.1679
5568.6,7.1679
5569,7.1679
5569.4,7.1679
5569.8,7.1679
5570.2,7.168
5570.6,7.168
5571,7.168
5571.4,7.168
5571.8,7.168
5572.2,7.1681
5572.6,7.1681
5573,7.1681
5573.4,7.1681
5573.8,7.1681
5574.2,7.1681
5574.6,7.1682
5575,7.1682
5575.4,7.1682
5575.8,7.1682
5576.2,7.1682
5576.6,7.1682
5577,7.1682
5577.4,7.1683
5577.8,7.1683
5578.2,7.1683
5578.6,7.1683
5579,7.1683
5579.4,7.1683
5579.8,7.1683
5580.2,7.1684
5580.6,7.1684
5581,7.1684
5581.4,7.1684
5581.8,7.1684
5582.2,7.1684
5582.6,7.1684
5583,7.1684
5583.4,7.1684
5583.8,7.1685
5584.2,7.1685
5584.6,7.1685
5585,7.1685
5585.4,7.1685
5585.8,7.1685
5586.2,7.1685
5586.6,7.1685
5587,7.1685
5587.4,7.1685
5587.8,7.1685
5588.2,7.1686
5588.6,7.1686
5589,7.1686
5589.4,7.1686
5589.8,7.1686
5590.2,7.1686
5590.6,7.1686
5591,7.1686
5591.4,7.1686
5591.8,7.1686
5592.2,7.1686
5592.6,7.1686
5593,7.1686
5593.4,7.1686
5593.8,7.1686
5594.2,7.1686
5594.6,7.1686
5595,7.1686
5595.4,7.1687
5595.8,7.1687
5596.2,7.1687
5596.6,7.1687
5597,7.1687
5597.4,7.1687
5597.8,7.1687
5598.2,7.1687
5598.6,7.1687
5599,7.1687
5599.4,7.1687
5599.8,7.1687
5600.2,7.1687
5600.6,7.1687
5601,7.1687
5601.4,7.1687
5601.8,7.1687
5602.2,7.1687
5602.6,7.1687
5603,7.1687
5603.4,7.1687
5603.8,7.1687
5604.2,7.1687
5604.6,7.1687
5605,7.1686
5605.4,7.1686
5605.8,7.1686
5606.2,7.1686
5606.6,7.1686
5607,7.1686
5607.4,7.1686
5607.8,7.1686
5608.2,7.1686
5608.6,7.1686
5609,7.1686
5609.4,7.1686
5609.8,7.1686
5610.2,7.1686
5610.6,7.1686
5611,7.1686
5611.4,7.1686
5611.8,7.1686
5612.2,7.1686
5612.6,7.1685
5613,7.1685
5613.4,7.1685
5613.8,7.1685
5614.2,7.1685
5614.6,7.1685
5615,7.1685
5615.4,7.1685
5615.8,7.1685
5616.2,7.1685
5616.6,7.1685
5617,7.1684
5617.4,7.1684
5617.8,7.1684
5618.2,7.1684
5618.6,7.1684
5619,7.1684
5619.4,7.1684
5619.8,7.1684
5620.2,7.1683
5620.6,7.1683
5621,7.1683
5621.4,7.1683
5621.8,7.1683
5622.2,7.1683
5622.6,7.1683
5623,7.1682
5623.4,7.1682
5623.8,7.1682
5624.2,7.1682
5624.6,7.1682
5625,7.1682
5625.4,7.1682
5625.8,7.1681
5626.2,7.1681
5626.6,7.1681
5627,7.1681
5627.4,7.1681
5627.8,7.1681
5628.2,7.168
5628.6,7.168
5629,7.168
5629.4,7.168
5629.8,7.168
5630.2,7.1679
5630.6,7.1679
5631,7.1679
5631.4,7.1679
5631.8,7.1679
5632.2,7.1678
5632.6,7.1678
5633,7.1678
5633.4,7.1678
5633.8,7.1678
5634.2,7.1677
5634.6,7.1677
5635,7.1677
5635.4,7.1677
5635.8,7.1676
5636.2,7.1676
5636.6,7.1676
5637,7.1676
5637.4,7.1676
5637.8,7.1675
5638.2,7.1675
5638.6,7.1675
5639,7.1675
5639.4,7.1674
5639.8,7.1674
5640.2,7.1674
5640.6,7.1674
5641,7.1673
5641.4,7.1673
5641.8,7.1673
5642.2,7.1673
5642.6,7.1672
5643,7.1672
5643.4,7.1672
5643.8,7.1671
5644.2,7.1671
5644.6,7.1671
5645,7.1671
5645.4,7.167
5645.8,7.167
5646.2,7.167
5646.6,7.1669
5647,7.1669
5647.4,7.1669
5647.8,7.1668
5648.2,7.1668
5648.6,7.1668
5649,7.1668
5649.4,7.1667
5649.8,7.1667
5650.2,7.1667
5650.6,7.1666
5651,7.1666
5651.4,7.1666
5651.8,7.1665
5652.2,7.1665
5652.6,7.1665
5653,7.1664
5653.4,7.1664
5653.8,7.1664
5654.2,7.1663
5654.6,7.1663
5655,7.1663
5655.4,7.1662
5655.8,7.1662
5656.2,7.1662
5656.6,7.1661
5657,7.1661
5657.4,7.166
5657.8,7.166
5658.2,7.166
5658.6,7.1659
5659,7.1659
5659.4,7.1659
5659.8,7.1658
5660.2,7.1658
5660.6,7.1657
5661,7.1657
5661.4,7.1657
5661.8,7.1656
5662.2,7.1656
5662.6,7.1655
5663,7.1655
5663.4,7.1655
5663.8,7.1654
5664.2,7.1654
5664.6,7.1653
5665,7.1653
5665.4,7.1653
5665.8,7.1652
5666.2,7.1652
5666.6,7.1651
5667,7.1651
5667.4,7.1651
5667.8,7.165
5668.2,7.165
5668.6,7.1649
5669,7.1649
5669.4,7.1648
5669.8,7.1648
5670.2,7.1647
5670.6,7.1647
5671,7.1647
5671.4,7.1646
5671.8,7.1646
5672.2,7.1645
5672.6,7.1645
5673,7.1644
5673.4,7.1644
5673.8,7.1643
5674.2,7.1643
5674.6,7.1642
5675,7.1642
5675.4,7.1641
5675.8,7.1641
5676.2,7.164
5676.6,7.164
5677,7.1639
5677.4,7.1639
5677.8,7.1639
5678.2,7.1638
5678.6,7.1638
5679,7.1637
5679.4,7.1637
5679.8,7.1636
5680.2,7.1635
5680.6,7.1635
5681,7.1634
5681.4,7.1634
5681.8,7.1633
5682.2,7.1633
5682.6,7.1632
5683,7.1632
5683.4,7.1631
5683.8,7.1631
5684.2,7.163
5684.6,7.163
5685,7.1629
5685.4,7.1629
5685.8,7.1628
5686.2,7.1628
5686.6,7.1627
5687,7.1626
5687.4,7.1626
5687.8,7.1625
5688.2,7.1625
5688.6,7.1624
5689,7.1624
5689.4,7.1623
5689.8,7.1623
5690.2,7.1622
5690.6,7.1621
5691,7.1621
5691.4,7.162
5691.8,7.162
5692.2,7.1619
5692.6,7.1618
5693,7.1618
5693.4,7.1617
5693.8,7.1617
5694.2,7.1616
5694.6,7.1615
5695,7.1615
5695.4,7.1614
5695.8,7.1614
5696.2,7.1613
5696.6,7.1612
5697,7.1612
5697.4,7.1611
5697.8,7.1611
5698.2,7.161
5698.6,7.1609
5699,7.1609
5699.4,7.1608
5699.8,7.1607
5700.2,7.1607
5700.6,7.1606
5701,7.1606
5701.4,7.1605
5701.8,7.1604
5702.2,7.1604
5702.6,7.1603
5703,7.1602
5703.4,7.1602
5703.8,7.1601
5704.2,7.16
5704.6,7.16
5705,7.1599
5705.4,7.1598
5705.8,7.1598
5706.2,7.1597
5706.6,7.1596
5707,7.1596
5707.4,7.1595
5707.8,7.1594
5708.2,7.1594
5708.6,7.1593
5709,7.1592
5709.4,7.1592
5709.8,7.1591
5710.2,7.159
5710.6,7.1589
5711,7.1589
5711.4,7.1588
5711.8,7.1587
5712.2,7.1587
5712.6,7.1586
5713,7.1585
5713.4,7.1584
5713.8,7.1584
5714.2,7.1583
5714.6,7.1582
5715,7.1582
5715.4,7.1581
5715.8,7.158
5716.2,7.1579
5716.6,7.1579
5717,7.1578
5717.4,7.1577
5717.8,7.1576
5718.2,7.1576
5718.6,7.1575
5719,7.1574
5719.4,7.1573
5719.8,7.1573
5720.2,7.1572
5720.6,7.1571
5721,7.157
5721.4,7.157
5721.8,7.1569
5722.2,7.1568
5722.6,7.1567
5723,7.1566
5723.4,7.1566
5723.8,7.1565
5724.2,7.1564
5724.6,7.1563
5725,7.1563
5725.4,7.1562
5725.8,7.1561
5726.2,7.156
5726.6,7.1559
5727,7.1559
5727.4,7.1558
5727.8,7.1557
5728.2,7.1556
5728.6,7.1555
5729,7.1555
5729.4,7.1554
5729.8,7.1553
5730.2,7.1552
5730.6,7.1551
5731,7.155
5731.4,7.155
5731.8,7.1549
5732.2,7.1548
5732.6,7.1547
5733,7.1546
5733.4,7.1545
5733.8,7.1545
5734.2,7.1544
5734.6,7.1543
5735,7.1542
5735.4,7.1541
5735.8,7.154
5736.2,7.1539
5736.6,7.1539
5737,7.1538
5737.4,7.1537
5737.8,7.1536
5738.2,7.1535
5738.6,7.1534
5739,7.1533
5739.4,7.1532
5739.8,7.1532
5740.2,7.1531
5740.6,7.153
5741,7.1529
5741.4,7.1528
5741.8,7.1527
5742.2,7.1526
5742.6,7.1525
5743,7.1524
5743.4,7.1524
5743.8,7.1523
5744.2,7.1522
5744.6,7.1521
5745,7.152
5745.4,7.1519
5745.8,7.1518
5746.2,7.1517
5746.6,7.1516
5747,7.1515
5747.4,7.1514
5747.8,7.1513
5748.2,7.1512
5748.6,7.1512
5749,7.1511
5749.4,7.151
5749.8,7.1509
5750.2,7.1508
5750.6,7.1507
5751,7.1506
5751.4,7.1505
5751.8,7.1504
5752.2,7.1503
5752.6,7.1502
5753,7.1501
5753.4,7.15
5753.8,7.1499
5754.2,7.1498
5754.6,7.1497
5755,7.1496
5755.4,7.1495
5755.8,7.1494
5756.2,7.1493
5756.6,7.1492
5757,7.1491
5757.4,7.149
5757.8,7.1489
5758.2,7.1488
5758.6,7.1487
5759,7.1486
5759.4,7.1485
5759.8,7.1484
5760.2,7.1483
5760.6,7.1482
5761,7.1481
5761.4,7.148
5761.8,7.1479
5762.2,7.1478
5762.6,7.1477
5763,7.1476
5763.4,7.1475
5763.8,7.1474
5764.2,7.1473
5764.6,7.1472
5765,7.1471
5765.4,7.147
5765.8,7.1469
5766.2,7.1468
5766.6,7.1467
5767,7.1466
5767.4,7.1465
5767.8,7.1464
5768.2,7.1463
5768.6,7.1462
5769,7.146
5769.4,7.1459
5769.8,7.1458
5770.2,7.1457
5770.6,7.1456
5771,7.1455
5771.4,7.1454
5771.8,7.1453
5772.2,7.1452
5772.6,7.1451
5773,7.145
5773.4,7.1449
5773.8,7.1448
5774.2,7.1446
5774.6,7.1445
5775,7.1444
5775.4,7.1443
5775.8,7.1442
5776.2,7.1441
5776.6,7.144
5777,7.1439
5777.4,7.1438
5777.8,7.1437
5778.2,7.1435
5778.6,7.1434
5779,7.1433
5779.4,7.1432
5779.8,7.1431
5780.2,7.143
5780.6,7.1429
5781,7.1427
5781.4,7.1426
5781.8,7.1425
5782.2,7.1424
5782.6,7.1423
5783,7.1422
5783.4,7.1421
5783.8,7.1419
5784.2,7.1418
5784.6,7.1417
5785,7.1416
5785.4,7.1415
5785.8,7.1414
5786.2,7.1413
5786.6,7.1411
5787,7.141
5787.4,7.1409
5787.8,7.1408
5788.2,7.1407
5788.6,7.1405
5789,7.1404
5789.4,7.1403
5789.8,7.1402
5790.2,7.1401
5790.6,7.14
5791,7.1398
5791.4,7.1397
5791.8,7.1396
5792.2,7.1395
5792.6,7.1394
5793,7.1392
5793.4,7.1391
5793.8,7.139
5794.2,7.1389
5794.6,7.1387
5795,7.1386
5795.4,7.1385
5795.8,7.1384
5796.2,7.1383
5796.6,7.1381
5797,7.138
5797.4,7.1379
5797.8,7.1378
5798.2,7.1376
5798.6,7.1375
5799,7.1374
5799.4,7.1373
5799.8,7.1371
5800.2,7.137
5800.6,7.1369
5801,7.1368
5801.4,7.1366
5801.8,7.1365
5802.2,7.1364
5802.6,7.1363
5803,7.1361
5803.4,7.136
5803.8,7.1359
5804.2,7.1357
5804.6,7.1356
5805,7.1355
5805.4,7.1354
5805.8,7.1352
5806.2,7.1351
5806.6,7.135
5807,7.1349
5807.4,7.1347
5807.8,7.1346
5808.2,7.1345
5808.6,7.1343
5809,7.1342
5809.4,7.1341
5809.8,7.1339
5810.2,7.1338
5810.6,7.1337
5811,7.1335
5811.4,7.1334
5811.8,7.1333
5812.2,7.1331
5812.6,7.133
5813,7.1329
5813.4,7.1328
5813.8,7.1326
5814.2,7.1325
5814.6,7.1324
5815,7.1322
5815.4,7.1321
5815.8,7.1319
5816.2,7.1318
5816.6,7.1317
5817,7.1315
5817.4,7.1314
5817.8,7.1313
5818.2,7.1311
5818.6,7.131
5819,7.1309
5819.4,7.1307
5819.8,7.1306
5820.2,7.1305
5820.6,7.1303
5821,7.1302
5821.4,7.13
5821.8,7.1299
5822.2,7.1298
5822.6,7.1296
5823,7.1295
5823.4,7.1293
5823.8,7.1292
5824.2,7.1291
5824.6,7.1289
5825,7.1288
5825.4,7.1286
5825.8,7.1285
5826.2,7.1284
5826.6,7.1282
5827,7.1281
5827.4,7.1279
5827.8,7.1278
5828.2,7.1277
5828.6,7.1275
5829,7.1274
5829.4,7.1272
5829.8,7.1271
5830.2,7.1269
5830.6,7.1268
5831,7.1267
5831.4,7.1265
5831.8,7.1264
5832.2,7.1262
5832.6,7.1261
5833,7.1259
5833.4,7.1258
5833.8,7.1257
5834.2,7.1255
5834.6,7.1254
5835,7.1252
5835.4,7.1251
5835.8,7.1249
5836.2,7.1248
5836.6,7.1246
5837,7.1245
5837.4,7.1243
5837.8,7.1242
5838.2,7.124
5838.6,7.1239
5839,7.1237
5839.4,7.1236
5839.8,7.1234
5840.2,7.1233
5840.6,7.1231
5841,7.123
5841.4,7.1229
5841.8,7.1227
5842.2,7.1226
5842.6,7.1224
5843,7.1222
5843.4,7.1221
5843.8,7.1219
5844.2,7.1218
5844.6,7.1216
5845,7.1215
5845.4,7.1213
5845.8,7.1212
5846.2,7.121
5846.6,7.1209
5847,7.1207
5847.4,7.1206
5847.8,7.1204
5848.2,7.1203
5848.6,7.1201
5849,7.12
5849.4,7.1198
5849.8,7.1197
5850.2,7.1195
5850.6,7.1193
5851,7.1192
5851.4,7.119
5851.8,7.1189
5852.2,7.1187
5852.6,7.1186
5853,7.1184
5853.4,7.1183
5853.8,7.1181
5854.2,7.1179
5854.6,7.1178
5855,7.1176
5855.4,7.1175
5855.8,7.1173
5856.2,7.1172
5856.6,7.117
5857,7.1168
5857.4,7.1167
5857.8,7.1165
5858.2,7.1164
5858.6,7.1162
5859,7.116
5859.4,7.1159
5859.8,7.1157
5860.2,7.1156
5860.6,7.1154
5861,7.1152
5861.4,7.1151
5861.8,7.1149
5862.2,7.1148
5862.6,7.1146
5863,7.1144
5863.4,7.1143
5863.8,7.1141
5864.2,7.1139
5864.6,7.1138
5865,7.1136
5865.4,7.1135
5865.8,7.1133
5866.2,7.1131
5866.6,7.113
5867,7.1128
5867.4,7.1126
5867.8,7.1125
5868.2,7.1123
5868.6,7.1121
5869,7.112
5869.4,7.1118
5869.8,7.1116
5870.2,7.1115
5870.6,7.1113
5871,7.1111
5871.4,7.111
5871.8,7.1108
5872.2,7.1106
5872.6,7.1105
5873,7.1103
5873.4,7.1101
5873.8,7.11
5874.2,7.1098
5874.6,7.1096
5875,7.1095
5875.4,7.1093
5875.8,7.1091
5876.2,7.109
5876.6,7.1088
5877,7.1086
5877.4,7.1084
5877.8,7.1083
5878.2,7.1081
5878.6,7.1079
5879,7.1078
5879.4,7.1076
5879.8,7.1074
5880.2,7.1072
5880.6,7.1071
5881,7.1069
5881.4,7.1067
5881.8,7.1066
5882.2,7.1064
5882.6,7.1062
5883,7.106
5883.4,7.1059
5883.8,7.1057
5884.2,7.1055
5884.6,7.1053
5885,7.1052
5885.4,7.105
5885.8,7.1048
5886.2,7.1046
5886.6,7.1045
5887,7.1043
5887.4,7.1041
5887.8,7.1039
5888.2,7.1038
5888.6,7.1036
5889,7.1034
5889.4,7.1032
5889.8,7.1031
5890.2,7.1029
5890.6,7.1027
5891,7.1025
5891.4,7.1023
5891.8,7.1022
5892.2,7.102
5892.6,7.1018
5893,7.1016
5893.4,7.1014
5893.8,7.1013
5894.2,7.1011
5894.6,7.1009
5895,7.1007
5895.4,7.1005
5895.8,7.1004
5896.2,7.1002
5896.6,7.1
5897,7.0998
5897.4,7.0996
5897.8,7.0995
5898.2,7.0993
5898.6,7.0991
5899,7.0989
5899.4,7.0987
5899.8,7.0985
5900.2,7.0984
5900.6,7.0982
5901,7.098
5901.4,7.0978
5901.8,7.0976
5902.2,7.0974
5902.6,7.0973
5903,7.0971
5903.4,7.0969
5903.8,7.0967
5904.2,7.0965
5904.6,7.0963
5905,7.0962
5905.4,7.096
5905.8,7.0958
5906.2,7.0956
5906.6,7.0954
5907,7.0952
5907.4,7.095
5907.8,7.0948
5908.2,7.0947
5908.6,7.0945
5909,7.0943
5909.4,7.0941
5909.8,7.0939
5910.2,7.0937
5910.6,7.0935
5911,7.0933
5911.4,7.0931
5911.8,7.093
5912.2,7.0928
5912.6,7.0926
5913,7.0924
5913.4,7.0922
5913.8,7.092
5914.2,7.0918
5914.6,7.0916
5915,7.0914
5915.4,7.0912
5915.8,7.0911
5916.2,7.0909
5916.6,7.0907
5917,7.0905
5917.4,7.0903
5917.8,7.0901
5918.2,7.0899
5918.6,7.0897
5919,7.0895
5919.4,7.0893
5919.8,7.0891
5920.2,7.0889
5920.6,7.0887
5921,7.0885
5921.4,7.0883
5921.8,7.0882
5922.2,7.088
5922.6,7.0878
5923,7.0876
5923.4,7.0874
5923.8,7.0872
5924.2,7.087
5924.6,7.0868
5925,7.0866
5925.4,7.0864
5925.8,7.0862
5926.2,7.086
5926.6,7.0858
5927,7.0856
5927.4,7.0854
5927.8,7.0852
5928.2,7.085
5928.6,7.0848
5929,7.0846
5929.4,7.0844
5929.8,7.0842
5930.2,7.084
5930.6,7.0838
5931,7.0836
5931.4,7.0834
5931.8,7.0832
5932.2,7.083
5932.6,7.0828
5933,7.0826
5933.4,7.0824
5933.8,7.0822
5934.2,7.082
5934.6,7.0818
5935,7.0816
5935.4,7.0814
5935.8,7.0812
5936.2,7.081
5936.6,7.0808
5937,7.0806
5937.4,7.0804
5937.8,7.0802
5938.2,7.08
5938.6,7.0798
5939,7.0796
5939.4,7.0794
5939.8,7.0792
5940.2,7.0789
5940.6,7.0787
5941,7.0785
5941.4,7.0783
5941.8,7.0781
5942.2,7.0779
5942.6,7.0777
5943,7.0775
5943.4,7.0773
5943.8,7.0771
5944.2,7.0769
5944.6,7.0767
5945,7.0765
5945.4,7.0763
5945.8,7.0761
5946.2,7.0759
5946.6,7.0756
5947,7.0754
5947.4,7.0752
5947.8,7.075
5948.2,7.0748
5948.6,7.0746
5949,7.0744
5949.4,7.0742
5949.8,7.074
5950.2,7.0738
5950.6,7.0735
5951,7.0733
5951.4,7.0731
5951.8,7.0729
5952.2,7.0727
5952.6,7.0725
5953,7.0723
5953.4,7.0721
5953.8,7.0719
5954.2,7.0716
5954.6,7.0714
5955,7.0712
5955.4,7.071
5955.8,7.0708
5956.2,7.0706
5956.6,7.0704
5957,7.0702
5957.4,7.0699
5957.8,7.0697
5958.2,7.0695
5958.6,7.0693
5959,7.0691
5959.4,7.0689
5959.8,7.0687
5960.2,7.0684
5960.6,7.0682
5961,7.068
5961.4,7.0678
5961.8,7.0676
5962.2,7.0674
5962.6,7.0671
5963,7.0669
5963.4,7.0667
5963.8,7.0665
5964.2,7.0663
5964.6,7.0661
5965,7.0658
5965.4,7.0656
5965.8,7.0654
5966.2,7.0652
5966.6,7.065
5967,7.0647
5967.4,7.0645
5967.8,7.0643
5968.2,7.0641
5968.6,7.0639
5969,7.0636
5969.4,7.0634
5969.8,7.0632
5970.2,7.063
5970.6,7.0628
5971,7.0625
5971.4,7.0623
5971.8,7.0621
5972.2,7.0619
5972.6,7.0617
5973,7.0614
5973.4,7.0612
5973.8,7.061
5974.2,7.0608
5974.6,7.0605
5975,7.0603
5975.4,7.0601
5975.8,7.0599
5976.2,7.0597
5976.6,7.0594
5977,7.0592
5977.4,7.059
5977.8,7.0588
5978.2,7.0585
5978.6,7.0583
5979,7.0581
5979.4,7.0579
5979.8,7.0576
5980.2,7.0574
5980.6,7.0572
5981,7.057
5981.4,7.0567
5981.8,7.0565
5982.2,7.0563
5982.6,7.056
5983,7.0558
5983.4,7.0556
5983.8,7.0554
5984.2,7.0551
5984.6,7.0549
5985,7.0547
5985.4,7.0545
5985.8,7.0542
5986.2,7.054
5986.6,7.0538
5987,7.0535
5987.4,7.0533
5987.8,7.0531
5988.2,7.0528
5988.6,7.0526
5989,7.0524
5989.4,7.0522
5989.8,7.0519
5990.2,7.0517
5990.6,7.0515
5991,7.0512
5991.4,7.051
5991.8,7.0508
5992.2,7.0505
5992.6,7.0503
5993,7.0501
5993.4,7.0498
5993.8,7.0496
5994.2,7.0494
5994.6,7.0491
5995,7.0489
5995.4,7.0487
5995.8,7.0484
5996.2,7.0482
5996.6,7.048
5997,7.0477
5997.4,7.0475
5997.8,7.0473
5998.2,7.047
5998.6,7.0468
5999,7.0466
5999.4,7.0463
5999.8,7.0461
6000.2,7.0459
6000.6,7.0456
6001,7.0454
6001.4,7.0452
6001.8,7.0449
6002.2,7.0447
6002.6,7.0444
6003,7.0442
6003.4,7.044
6003.8,7.0437
6004.2,7.0435
6004.6,7.0433
6005,7.043
6005.4,7.0428
6005.8,7.0425
6006.2,7.0423
6006.6,7.0421
6007,7.0418
6007.4,7.0416
6007.8,7.0413
6008.2,7.0411
6008.6,7.0409
6009,7.0406
6009.4,7.0404
6009.8,7.0401
6010.2,7.0399
6010.6,7.0397
6011,7.0394
6011.4,7.0392
6011.8,7.0389
6012.2,7.0387
6012.6,7.0385
6013,7.0382
6013.4,7.038
6013.8,7.0377
6014.2,7.0375
6014.6,7.0372
6015,7.037
6015.4,7.0368
6015.8,7.0365
6016.2,7.0363
6016.6,7.036
6017,7.0358
6017.4,7.0355
6017.8,7.0353
6018.2,7.0351
6018.6,7.0348
6019,7.0346
6019.4,7.0343
6019.8,7.0341
6020.2,7.0338
6020.6,7.0336
6021,7.0333
6021.4,7.0331
6021.8,7.0328
6022.2,7.0326
6022.6,7.0323
6023,7.0321
6023.4,7.0319
6023.8,7.0316
6024.2,7.0314
6024.6,7.0311
6025,7.0309
6025.4,7.0306
6025.8,7.0304
6026.2,7.0301
6026.6,7.0299
6027,7.0296
6027.4,7.0294
6027.8,7.0291
6028.2,7.0289
6028.6,7.0286
6029,7.0284
6029.4,7.0281
6029.8,7.0279
6030.2,7.0276
6030.6,7.0274
6031,7.0271
6031.4,7.0269
6031.8,7.0266
6032.2,7.0264
6032.6,7.0261
6033,7.0259
6033.4,7.0256
6033.8,7.0254
6034.2,7.0251
6034.6,7.0249
6035,7.0246
6035.4,7.0244
6035.8,7.0241
6036.2,7.0239
6036.6,7.0236
6037,7.0233
6037.4,7.0231
6037.8,7.0228
6038.2,7.0226
6038.6,7.0223
6039,7.0221
6039.4,7.0218
6039.8,7.0216
6040.2,7.0213
6040.6,7.0211
6041,7.0208
6041.4,7.0205
6041.8,7.0203
6042.2,7.02
6042.6,7.0198
6043,7.0195
6043.4,7.0193
6043.8,7.019
6044.2,7.0187
6044.6,7.0185
6045,7.0182
6045.4,7.018
6045.8,7.0177
6046.2,7.0175
6046.6,7.0172
6047,7.0169
6047.4,7.0167
6047.8,7.0164
6048.2,7.0162
6048.6,7.0159
6049,7.0157
6049.4,7.0154
6049.8,7.0151
6050.2,7.0149
6050.6,7.0146
6051,7.0144
6051.4,7.0141
6051.8,7.0138
6052.2,7.0136
6052.6,7.0133
6053,7.0131
6053.4,7.0128
6053.8,7.0125
6054.2,7.0123
6054.6,7.012
6055,7.0117
6055.4,7.0115
6055.8,7.0112
6056.2,7.011
6056.6,7.0107
6057,7.0104
6057.4,7.0102
6057.8,7.0099
6058.2,7.0096
6058.6,7.0094
6059,7.0091
6059.4,7.0089
6059.8,7.0086
6060.2,7.0083
6060.6,7.0081
6061,7.0078
6061.4,7.0075
6061.8,7.0073
6062.2,7.007
6062.6,7.0067
6063,7.0065
6063.4,7.0062
6063.8,7.0059
6064.2,7.0057
6064.6,7.0054
6065,7.0051
6065.4,7.0049
6065.8,7.0046
6066.2,7.0043
6066.6,7.0041
6067,7.0038
6067.4,7.0035
6067.8,7.0033
6068.2,7.003
6068.6,7.0027
6069,7.0025
6069.4,7.0022
6069.8,7.0019
6070.2,7.0017
6070.6,7.0014
6071,7.0011
6071.4,7.0009
6071.8,7.0006
6072.2,7.0003
6072.6,7
6073,6.9998
6073.4,6.9995
6073.8,6.9992
6074.2,6.999
6074.6,6.9987
6075,6.9984
6075.4,6.9982
6075.8,6.9979
6076.2,6.9976
6076.6,6.9973
6077,6.9971
6077.4,6.9968
6077.8,6.9965
6078.2,6.9963
6078.6,6.996
6079,6.9957
6079.4,6.9954
6079.8,6.9952
6080.2,6.9949
6080.6,6.9946
6081,6.9943
6081.4,6.9941
6081.8,6.9938
6082.2,6.9935
6082.6,6.9932
6083,6.993
6083.4,6.9927
6083.8,6.9924
6084.2,6.9921
6084.6,6.9919
6085,6.9916
6085.4,6.9913
6085.8,6.991
6086.2,6.9908
6086.6,6.9905
6087,6.9902
6087.4,6.9899
6087.8,6.9897
6088.2,6.9894
6088.6,6.9891
6089,6.9888
6089.4,6.9886
6089.8,6.9883
6090.2,6.988
6090.6,6.9877
6091,6.9874
6091.4,6.9872
6091.8,6.9869
6092.2,6.9866
6092.6,6.9863
6093,6.9861
6093.4,6.9858
6093.8,6.9855
6094.2,6.9852
6094.6,6.9849
6095,6.9847
6095.4,6.9844
6095.8,6.9841
6096.2,6.9838
6096.6,6.9835
6097,6.9833
6097.4,6.983
6097.8,6.9827
6098.2,6.9824
6098.6,6.9821
6099,6.9819
6099.4,6.9816
6099.8,6.9813
6100.2,6.981
6100.6,6.9807
6101,6.9804
6101.4,6.9802
6101.8,6.9799
6102.2,6.9796
6102.6,6.9793
6103,6.979
6103.4,6.9788
6103.8,6.9785
6104.2,6.9782
6104.6,6.9779
6105,6.9776
6105.4,6.9773
6105.8,6.9771
6106.2,6.9768
6106.6,6.9765
6107,6.9762
6107.4,6.9759
6107.8,6.9756
6108.2,6.9753
6108.6,6.9751
6109,6.9748
6109.4,6.9745
6109.8,6.9742
6110.2,6.9739
6110.6,6.9736
6111,6.9733
6111.4,6.9731
6111.8,6.9728
6112.2,6.9725
6112.6,6.9722
6113,6.9719
6113.4,6.9716
6113.8,6.9713
6114.2,6.971
6114.6,6.9708
6115,6.9705
6115.4,6.9702
6115.8,6.9699
6116.2,6.9696
6116.6,6.9693
6117,6.969
6117.4,6.9687
6117.8,6.9685
6118.2,6.9682
6118.6,6.9679
6119,6.9676
6119.4,6.9673
6119.8,6.967
6120.2,6.9667
6120.6,6.9664
6121,6.9661
6121.4,6.9658
6121.8,6.9656
6122.2,6.9653
6122.6,6.965
6123,6.9647
6123.4,6.9644
6123.8,6.9641
6124.2,6.9638
6124.6,6.9635
6125,6.9632
6125.4,6.9629
6125.8,6.9626
6126.2,6.9623
6126.6,6.9621
6127,6.9618
6127.4,6.9615
6127.8,6.9612
6128.2,6.9609
6128.6,6.9606
6129,6.9603
6129.4,6.96
6129.8,6.9597
6130.2,6.9594
6130.6,6.9591
6131,6.9588
6131.4,6.9585
6131.8,6.9582
6132.2,6.9579
6132.6,6.9576
6133,6.9574
6133.4,6.9571
6133.8,6.9568
6134.2,6.9565
6134.6,6.9562
6135,6.9559
6135.4,6.9556
6135.8,6.9553
6136.2,6.955
6136.6,6.9547
6137,6.9544
6137.4,6.9541
6137.8,6.9538
6138.2,6.9535
6138.6,6.9532
6139,6.9529
6139.4,6.9526
6139.8,6.9523
6140.2,6.952
6140.6,6.9517
6141,6.9514
6141.4,6.9511
6141.8,6.9508
6142.2,6.9505
6142.6,6.9502
6143,6.9499
6143.4,6.9496
6143.8,6.9493
6144.2,6.949
6144.6,6.9487
6145,6.9484
6145.4,6.9481
6145.8,6.9478
6146.2,6.9475
6146.6,6.9472
6147,6.9469
6147.4,6.9466
6147.8,6.9463
6148.2,6.946
6148.6,6.9457
6149,6.9454
6149.4,6.9451
6149.8,6.9448
6150.2,6.9445
6150.6,6.9442
6151,6.9439
6151.4,6.9436
6151.8,6.9433
6152.2,6.943
6152.6,6.9427
6153,6.9424
6153.4,6.9421
6153.8,6.9418
6154.2,6.9415
6154.6,6.9412
6155,6.9409
6155.4,6.9406
6155.8,6.9403
6156.2,6.94
6156.6,6.9397
6157,6.9394
6157.4,6.9391
6157.8,6.9387
6158.2,6.9384
6158.6,6.9381
6159,6.9378
6159.4,6.9375
6159.8,6.9372
6160.2,6.9369
6160.6,6.9366
6161,6.9363
6161.4,6.936
6161.8,6.9357
6162.2,6.9354
6162.6,6.9351
6163,6.9348
6163.4,6.9345
6163.8,6.9342
6164.2,6.9339
6164.6,6.9335
6165,6.9332
6165.4,6.9329
6165.8,6.9326
6166.2,6.9323
6166.6,6.932
6167,6.9317
6167.4,6.9314
6167.8,6.9311
6168.2,6.9308
6168.6,6.9305
6169,6.9302
6169.4,6.9298
6169.8,6.9295
6170.2,6.9292
6170.6,6.9289
6171,6.9286
6171.4,6.9283
6171.8,6.928
6172.2,6.9277
6172.6,6.9274
6173,6.9271
6173.4,6.9267
6173.8,6.9264
6174.2,6.9261
6174.6,6.9258
6175,6.9255
6175.4,6.9252
6175.8,6.9249
6176.2,6.9246
6176.6,6.9243
6177,6.9239
6177.4,6.9236
6177.8,6.9233
6178.2,6.923
6178.6,6.9227
6179,6.9224
6179.4,6.9221
6179.8,6.9218
6180.2,6.9214
6180.6,6.9211
6181,6.9208
6181.4,6.9205
6181.8,6.9202
6182.2,6.9199
6182.6,6.9196
6183,6.9193
6183.4,6.9189
6183.8,6.9186
6184.2,6.9183
6184.6,6.918
6185,6.9177
6185.4,6.9174
6185.8,6.9171
6186.2,6.9167
6186.6,6.9164
6187,6.9161
6187.4,6.9158
6187.8,6.9155
6188.2,6.9152
6188.6,6.9148
6189,6.9145
6189.4,6.9142
6189.8,6.9139
6190.2,6.9136
6190.6,6.9133
6191,6.9129
6191.4,6.9126
6191.8,6.9123
6192.2,6.912
6192.6,6.9117
6193,6.9114
6193.4,6.911
6193.8,6.9107
6194.2,6.9104
6194.6,6.9101
6195,6.9098
6195.4,6.9095
6195.8,6.9091
6196.2,6.9088
6196.6,6.9085
6197,6.9082
6197.4,6.9079
6197.8,6.9075
6198.2,6.9072
6198.6,6.9069
6199,6.9066
6199.4,6.9063
6199.8,6.9059
6200.2,6.9056
6200.6,6.9053
6201,6.905
6201.4,6.9047
6201.8,6.9043
6202.2,6.904
6202.6,6.9037
6203,6.9034
6203.4,6.9031
6203.8,6.9027
6204.2,6.9024
6204.6,6.9021
6205,6.9018
6205.4,6.9015
6205.8,6.9011
6206.2,6.9008
6206.6,6.9005
6207,6.9002
6207.4,6.8998
6207.8,6.8995
6208.2,6.8992
6208.6,6.8989
6209,6.8985
6209.4,6.8982
6209.8,6.8979
6210.2,6.8976
6210.6,6.8973
6211,6.8969
6211.4,6.8966
6211.8,6.8963
6212.2,6.896
6212.6,6.8956
6213,6.8953
6213.4,6.895
6213.8,6.8947
6214.2,6.8943
6214.6,6.894
6215,6.8937
6215.4,6.8934
6215.8,6.893
6216.2,6.8927
6216.6,6.8924
6217,6.8921
6217.4,6.8917
6217.8,6.8914
6218.2,6.8911
6218.6,6.8908
6219,6.8904
6219.4,6.8901
6219.8,6.8898
6220.2,6.8895
6220.6,6.8891
6221,6.8888
6221.4,6.8885
6221.8,6.8881
6222.2,6.8878
6222.6,6.8875
6223,6.8872
6223.4,6.8868
6223.8,6.8865
6224.2,6.8862
6224.6,6.8859
6225,6.8855
6225.4,6.8852
6225.8,6.8849
6226.2,6.8845
6226.6,6.8842
6227,6.8839
6227.4,6.8836
6227.8,6.8832
6228.2,6.8829
6228.6,6.8826
6229,6.8822
6229.4,6.8819
6229.8,6.8816
6230.2,6.8812
6230.6,6.8809
6231,6.8806
6231.4,6.8803
6231.8,6.8799
6232.2,6.8796
6232.6,6.8793
6233,6.8789
6233.4,6.8786
6233.8,6.8783
6234.2,6.8779
6234.6,6.8776
6235,6.8773
6235.4,6.8769
6235.8,6.8766
6236.2,6.8763
6236.6,6.876
6237,6.8756
6237.4,6.8753
6237.8,6.875
6238.2,6.8746
6238.6,6.8743
6239,6.874
6239.4,6.8736
6239.8,6.8733
6240.2,6.873
6240.6,6.8726
6241,6.8723
6241.4,6.872
6241.8,6.8716
6242.2,6.8713
6242.6,6.871
6243,6.8706
6243.4,6.8703
6243.8,6.87
6244.2,6.8696
6244.6,6.8693
6245,6.869
6245.4,6.8686
6245.8,6.8683
6246.2,6.868
6246.6,6.8676
6247,6.8673
6247.4,6.8669
6247.8,6.8666
6248.2,6.8663
6248.6,6.8659
6249,6.8656
6249.4,6.8653
6249.8,6.8649
6250.2,6.8646
6250.6,6.8643
6251,6.8639
6251.4,6.8636
6251.8,6.8633
6252.2,6.8629
6252.6,6.8626
6253,6.8622
6253.4,6.8619
6253.8,6.8616
6254.2,6.8612
6254.6,6.8609
6255,6.8606
6255.4,6.8602
6255.8,6.8599
6256.2,6.8595
6256.6,6.8592
6257,6.8589
6257.4,6.8585
6257.8,6.8582
6258.2,6.8579
6258.6,6.8575
6259,6.8572
6259.4,6.8568
6259.8,6.8565
6260.2,6.8562
6260.6,6.8558
6261,6.8555
6261.4,6.8551
6261.8,6.8548
6262.2,6.8545
6262.6,6.8541
6263,6.8538
6263.4,6.8534
6263.8,6.8531
6264.2,6.8528
6264.6,6.8524
6265,6.8521
6265.4,6.8517
6265.8,6.8514
6266.2,6.8511
6266.6,6.8507
6267,6.8504
6267.4,6.85
6267.8,6.8497
6268.2,6.8494
6268.6,6.849
6269,6.8487
6269.4,6.8483
6269.8,6.848
6270.2,6.8477
6270.6,6.8473
6271,6.847
6271.4,6.8466
6271.8,6.8463
6272.2,6.8459
6272.6,6.8456
6273,6.8453
6273.4,6.8449
6273.8,6.8446
6274.2,6.8442
6274.6,6.8439
6275,6.8435
6275.4,6.8432
6275.8,6.8429
6276.2,6.8425
6276.6,6.8422
6277,6.8418
6277.4,6.8415
6277.8,6.8411
6278.2,6.8408
6278.6,6.8405
6279,6.8401
6279.4,6.8398
6279.8,6.8394
6280.2,6.8391
6280.6,6.8387
6281,6.8384
6281.4,6.838
6281.8,6.8377
6282.2,6.8374
6282.6,6.837
6283,6.8367
6283.4,6.8363
6283.8,6.836
6284.2,6.8356
6284.6,6.8353
6285,6.8349
6285.4,6.8346
6285.8,6.8342
6286.2,6.8339
6286.6,6.8335
6287,6.8332
6287.4,6.8329
6287.8,6.8325
6288.2,6.8322
6288.6,6.8318
6289,6.8315
6289.4,6.8311
6289.8,6.8308
6290.2,6.8304
6290.6,6.8301
6291,6.8297
6291.4,6.8294
6291.8,6.829
6292.2,6.8287
6292.6,6.8283
6293,6.828
6293.4,6.8276
6293.8,6.8273
6294.2,6.827
6294.6,6.8266
6295,6.8263
6295.4,6.8259
6295.8,6.8256
6296.2,6.8252
6296.6,6.8249
6297,6.8245
6297.4,6.8242
6297.8,6.8238
6298.2,6.8235
6298.6,6.8231
6299,6.8228
6299.4,6.8224
6299.8,6.8221
6300.2,6.8217
6300.6,6.8214
6301,6.821
6301.4,6.8207
6301.8,6.8203
6302.2,6.82
6302.6,6.8196
6303,6.8193
6303.4,6.8189
6303.8,6.8186
6304.2,6.8182
6304.6,6.8179
6305,6.8175
6305.4,6.8172
6305.8,6.8168
6306.2,6.8165
6306.6,6.8161
6307,6.8158
6307.4,6.8154
6307.8,6.815
6308.2,6.8147
6308.6,6.8143
6309,6.814
6309.4,6.8136
6309.8,6.8133
6310.2,6.8129
6310.6,6.8126
6311,6.8122
6311.4,6.8119
6311.8,6.8115
6312.2,6.8112
6312.6,6.8108
6313,6.8105
6313.4,6.8101
6313.8,6.8098
6314.2,6.8094
6314.6,6.8091
6315,6.8087
6315.4,6.8083
6315.8,6.808
6316.2,6.8076
6316.6,6.8073
6317,6.8069
6317.4,6.8066
6317.8,6.8062
6318.2,6.8059
6318.6,6.8055
6319,6.8052
6319.4,6.8048
6319.8,6.8045
6320.2,6.8041
6320.6,6.8037
6321,6.8034
6321.4,6.803
6321.8,6.8027
6322.2,6.8023
6322.6,6.802
6323,6.8016
6323.4,6.8013
6323.8,6.8009
6324.2,6.8005
6324.6,6.8002
6325,6.7998
6325.4,6.7995
6325.8,6.7991
6326.2,6.7988
6326.6,6.7984
6327,6.7981
6327.4,6.7977
6327.8,6.7973
6328.2,6.797
6328.6,6.7966
6329,6.7963
6329.4,6.7959
6329.8,6.7956
6330.2,6.7952
6330.6,6.7948
6331,6.7945
6331.4,6.7941
6331.8,6.7938
6332.2,6.7934
6332.6,6.7931
6333,6.7927
6333.4,6.7923
6333.8,6.792
6334.2,6.7916
6334.6,6.7913
6335,6.7909
6335.4,6.7906
6335.8,6.7902
6336.2,6.7898
6336.6,6.7895
6337,6.7891
6337.4,6.7888
6337.8,6.7884
6338.2,6.788
6338.6,6.7877
6339,6.7873
6339.4,6.787
6339.8,6.7866
6340.2,6.7862
6340.6,6.7859
6341,6.7855
6341.4,6.7852
6341.8,6.7848
6342.2,6.7844
6342.6,6.7841
6343,6.7837
6343.4,6.7834
6343.8,6.783
6344.2,6.7826
6344.6,6.7823
6345,6.7819
6345.4,6.7816
6345.8,6.7812
6346.2,6.7808
6346.6,6.7805
6347,6.7801
6347.4,6.7798
6347.8,6.7794
6348.2,6.779
6348.6,6.7787
6349,6.7783
6349.4,6.778
6349.8,6.7776
6350.2,6.7772
6350.6,6.7769
6351,6.7765
6351.4,6.7762
6351.8,6.7758
6352.2,6.7754
6352.6,6.7751
6353,6.7747
6353.4,6.7743
6353.8,6.774
6354.2,6.7736
6354.6,6.7733
6355,6.7729
6355.4,6.7725
6355.8,6.7722
6356.2,6.7718
6356.6,6.7714
6357,6.7711
6357.4,6.7707
6357.8,6.7704
6358.2,6.77
6358.6,6.7696
6359,6.7693
6359.4,6.7689
6359.8,6.7685
6360.2,6.7682
6360.6,6.7678
6361,6.7674
6361.4,6.7671
6361.8,6.7667
6362.2,6.7664
6362.6,6.766
6363,6.7656
6363.4,6.7653
6363.8,6.7649
6364.2,6.7645
6364.6,6.7642
6365,6.7638
6365.4,6.7634
6365.8,6.7631
6366.2,6.7627
6366.6,6.7623
6367,6.762
6367.4,6.7616
6367.8,6.7613
6368.2,6.7609
6368.6,6.7605
6369,6.7602
6369.4,6.7598
6369.8,6.7594
6370.2,6.7591
6370.6,6.7587
6371,6.7583
6371.4,6.758
6371.8,6.7576
6372.2,6.7572
6372.6,6.7569
6373,6.7565
6373.4,6.7561
6373.8,6.7558
6374.2,6.7554
6374.6,6.755
6375,6.7547
6375.4,6.7543
6375.8,6.7539
6376.2,6.7536
6376.6,6.7532
6377,6.7528
6377.4,6.7525
6377.8,6.7521
6378.2,6.7517
6378.6,6.7514
6379,6.751
6379.4,6.7506
6379.8,6.7503
6380.2,6.7499
6380.6,6.7495
6381,6.7492
6381.4,6.7488
6381.8,6.7484
6382.2,6.7481
6382.6,6.7477
6383,6.7473
6383.4,6.747
6383.8,6.7466
6384.2,6.7462
6384.6,6.7459
6385,6.7455
6385.4,6.7451
6385.8,6.7448
6386.2,6.7444
6386.6,6.744
6387,6.7436
6387.4,6.7433
6387.8,6.7429
6388.2,6.7425
6388.6,6.7422
6389,6.7418
6389.4,6.7414
6389.8,6.7411
6390.2,6.7407
6390.6,6.7403
6391,6.74
6391.4,6.7396
6391.8,6.7392
6392.2,6.7388
6392.6,6.7385
6393,6.7381
6393.4,6.7377
6393.8,6.7374
6394.2,6.737
6394.6,6.7366
6395,6.7363
6395.4,6.7359
6395.8,6.7355
6396.2,6.7351
6396.6,6.7348
6397,6.7344
6397.4,6.734
6397.8,6.7337
6398.2,6.7333
6398.6,6.7329
6399,6.7326
6399.4,6.7322
6399.8,6.7318
6400.2,6.7314
6400.6,6.7311
6401,6.7307
6401.4,6.7303
6401.8,6.73
6402.2,6.7296
6402.6,6.7292
6403,6.7288
6403.4,6.7285
6403.8,6.7281
6404.2,6.7277
6404.6,6.7274
6405,6.727
6405.4,6.7266
6405.8,6.7262
6406.2,6.7259
6406.6,6.7255
6407,6.7251
6407.4,6.7248
6407.8,6.7244
6408.2,6.724
6408.6,6.7236
6409,6.7233
6409.4,6.7229
6409.8,6.7225
6410.2,6.7222
6410.6,6.7218
6411,6.7214
6411.4,6.721
6411.8,6.7207
6412.2,6.7203
6412.6,6.7199
6413,6.7195
6413.4,6.7192
6413.8,6.7188
6414.2,6.7184
6414.6,6.718
6415,6.7177
6415.4,6.7173
6415.8,6.7169
6416.2,6.7166
6416.6,6.7162
6417,6.7158
6417.4,6.7154
6417.8,6.7151
6418.2,6.7147
6418.6,6.7143
6419,6.7139
6419.4,6.7136
6419.8,6.7132
6420.2,6.7128
6420.6,6.7124
6421,6.7121
6421.4,6.7117
6421.8,6.7113
6422.2,6.7109
6422.6,6.7106
6423,6.7102
6423.4,6.7098
6423.8,6.7095
6424.2,6.7091
6424.6,6.7087
6425,6.7083
6425.4,6.708
6425.8,6.7076
6426.2,6.7072
6426.6,6.7068
6427,6.7065
6427.4,6.7061
6427.8,6.7057
6428.2,6.7053
6428.6,6.705
6429,6.7046
6429.4,6.7042
6429.8,6.7038
6430.2,6.7034
6430.6,6.7031
6431,6.7027
6431.4,6.7023
6431.8,6.7019
6432.2,6.7016
6432.6,6.7012
6433,6.7008
6433.4,6.7004
6433.8,6.7001
6434.2,6.6997
6434.6,6.6993
6435,6.6989
6435.4,6.6986
6435.8,6.6982
6436.2,6.6978
6436.6,6.6974
6437,6.6971
6437.4,6.6967
6437.8,6.6963
6438.2,6.6959
6438.6,6.6956
6439,6.6952
6439.4,6.6948
6439.8,6.6944
6440.2,6.694
6440.6,6.6937
6441,6.6933
6441.4,6.6929
6441.8,6.6925
6442.2,6.6922
6442.6,6.6918
6443,6.6914
6443.4,6.691
6443.8,6.6907
6444.2,6.6903
6444.6,6.6899
6445,6.6895
6445.4,6.6891
6445.8,6.6888
6446.2,6.6884
6446.6,6.688
6447,6.6876
6447.4,6.6873
6447.8,6.6869
6448.2,6.6865
6448.6,6.6861
6449,6.6857
6449.4,6.6854
6449.8,6.685
6450.2,6.6846
6450.6,6.6842
6451,6.6839
6451.4,6.6835
6451.8,6.6831
6452.2,6.6827
6452.6,6.6823
6453,6.682
6453.4,6.6816
6453.8,6.6812
6454.2,6.6808
6454.6,6.6804
6455,6.6801
6455.4,6.6797
6455.8,6.6793
6456.2,6.6789
6456.6,6.6786
6457,6.6782
6457.4,6.6778
6457.8,6.6774
6458.2,6.677
6458.6,6.6767
6459,6.6763
6459.4,6.6759
6459.8,6.6755
6460.2,6.6751
6460.6,6.6748
6461,6.6744
6461.4,6.674
6461.8,6.6736
6462.2,6.6732
6462.6,6.6729
6463,6.6725
6463.4,6.6721
6463.8,6.6717
6464.2,6.6713
6464.6,6.671
6465,6.6706
6465.4,6.6702
6465.8,6.6698
6466.2,6.6694
6466.6,6.6691
6467,6.6687
6467.4,6.6683
6467.8,6.6679
6468.2,6.6675
6468.6,6.6672
6469,6.6668
6469.4,6.6664
6469.8,6.666
6470.2,6.6656
6470.6,6.6653
6471,6.6649
6471.4,6.6645
6471.8,6.6641
6472.2,6.6637
6472.6,6.6634
6473,6.663
6473.4,6.6626
6473.8,6.6622
6474.2,6.6618
6474.6,6.6615
6475,6.6611
6475.4,6.6607
6475.8,6.6603
6476.2,6.6599
6476.6,6.6596
6477,6.6592
6477.4,6.6588
6477.8,6.6584
6478.2,6.658
6478.6,6.6576
6479,6.6573
6479.4,6.6569
6479.8,6.6565
6480.2,6.6561
6480.6,6.6557
6481,6.6554
6481.4,6.655
6481.8,6.6546
6482.2,6.6542
6482.6,6.6538
6483,6.6534
6483.4,6.6531
6483.8,6.6527
6484.2,6.6523
6484.6,6.6519
6485,6.6515
6485.4,6.6512
6485.8,6.6508
6486.2,6.6504
6486.6,6.65
6487,6.6496
6487.4,6.6492
6487.8,6.6489
6488.2,6.6485
6488.6,6.6481
6489,6.6477
6489.4,6.6473
6489.8,6.647
6490.2,6.6466
6490.6,6.6462
6491,6.6458
6491.4,6.6454
6491.8,6.645
6492.2,6.6447
6492.6,6.6443
6493,6.6439
6493.4,6.6435
6493.8,6.6431
6494.2,6.6427
6494.6,6.6424
6495,6.642
6495.4,6.6416
6495.8,6.6412
6496.2,6.6408
6496.6,6.6404
6497,6.6401
6497.4,6.6397
6497.8,6.6393
6498.2,6.6389
6498.6,6.6385
6499,6.6382
6499.4,6.6378
6499.8,6.6374
6500.3,6.637
6500.7,6.6366
6501.1,6.6362
6501.5,6.6359
6501.9,6.6355
6502.3,6.6351
6502.7,6.6347
6503.1,6.6343
6503.5,6.6339
6503.9,6.6336
6504.3,6.6332
6504.7,6.6328
6505.1,6.6324
6505.5,6.632
6505.9,6.6316
6506.3,6.6312
6506.7,6.6309
6507.1,6.6305
6507.5,6.6301
6507.9,6.6297
6508.3,6.6293
6508.7,6.6289
6509.1,6.6286
6509.5,6.6282
6509.9,6.6278
6510.3,6.6274
6510.7,6.627
6511.1,6.6266
6511.5,6.6263
6511.9,6.6259
6512.3,6.6255
6512.7,6.6251
6513.1,6.6247
6513.5,6.6243
6513.9,6.624
6514.3,6.6236
6514.7,6.6232
6515.1,6.6228
6515.5,6.6224
6515.9,6.622
6516.3,6.6216
6516.7,6.6213
6517.1,6.6209
6517.5,6.6205
6517.9,6.6201
6518.3,6.6197
6518.7,6.6193
6519.1,6.619
6519.5,6.6186
6519.9,6.6182
6520.3,6.6178
6520.7,6.6174
6521.1,6.617
6521.5,6.6166
6521.9,6.6163
6522.3,6.6159
6522.7,6.6155
6523.1,6.6151
6523.5,6.6147
6523.9,6.6143
6524.3,6.614
6524.7,6.6136
6525.1,6.6132
6525.5,6.6128
6525.9,6.6124
6526.3,6.612
6526.7,6.6116
6527.1,6.6113
6527.5,6.6109
6527.9,6.6105
6528.3,6.6101
6528.7,6.6097
6529.1,6.6093
6529.5,6.6089
6529.9,6.6086
6530.3,6.6082
6530.7,6.6078
6531.1,6.6074
6531.5,6.607
6531.9,6.6066
6532.3,6.6063
6532.7,6.6059
6533.1,6.6055
6533.5,6.6051
6533.9,6.6047
6534.3,6.6043
6534.7,6.6039
6535.1,6.6036
6535.5,6.6032
6535.9,6.6028
6536.3,6.6024
6536.7,6.602
6537.1,6.6016
6537.5,6.6012
6537.9,6.6009
6538.3,6.6005
6538.7,6.6001
6539.1,6.5997
6539.5,6.5993
6539.9,6.5989
6540.3,6.5985
6540.7,6.5982
6541.1,6.5978
6541.5,6.5974
6541.9,6.597
6542.3,6.5966
6542.7,6.5962
6543.1,6.5958
6543.5,6.5955
6543.9,6.5951
6544.3,6.5947
6544.7,6.5943
6545.1,6.5939
6545.5,6.5935
6545.9,6.5931
6546.3,6.5928
6546.7,6.5924
6547.1,6.592
6547.5,6.5916
6547.9,6.5912
6548.3,6.5908
6548.7,6.5904
6549.1,6.59
6549.5,6.5897
6549.9,6.5893
6550.3,6.5889
6550.7,6.5885
6551.1,6.5881
6551.5,6.5877
6551.9,6.5873
6552.3,6.587
6552.7,6.5866
6553.1,6.5862
6553.5,6.5858
6553.9,6.5854
6554.3,6.585
6554.7,6.5846
6555.1,6.5843
6555.5,6.5839
6555.9,6.5835
6556.3,6.5831
6556.7,6.5827
6557.1,6.5823
6557.5,6.5819
6557.9,6.5815
6558.3,6.5812
6558.7,6.5808
6559.1,6.5804
6559.5,6.58
6559.9,6.5796
6560.3,6.5792
6560.7,6.5788
6561.1,6.5785
6561.5,6.5781
6561.9,6.5777
6562.3,6.5773
6562.7,6.5769
6563.1,6.5765
6563.5,6.5761
6563.9,6.5758
6564.3,6.5754
6564.7,6.575
6565.1,6.5746
6565.5,6.5742
6565.9,6.5738
6566.3,6.5734
6566.7,6.573
6567.1,6.5727
6567.5,6.5723
6567.9,6.5719
6568.3,6.5715
6568.7,6.5711
6569.1,6.5707
6569.5,6.5703
6569.9,6.5699
6570.3,6.5696
6570.7,6.5692
6571.1,6.5688
6571.5,6.5684
6571.9,6.568
6572.3,6.5676
6572.7,6.5672
6573.1,6.5669
6573.5,6.5665
6573.9,6.5661
6574.3,6.5657
6574.7,6.5653
6575.1,6.5649
6575.5,6.5645
6575.9,6.5641
6576.3,6.5638
6576.7,6.5634
6577.1,6.563
6577.5,6.5626
6577.9,6.5622
6578.3,6.5618
6578.7,6.5614
6579.1,6.561
6579.5,6.5607
6579.9,6.5603
6580.3,6.5599
6580.7,6.5595
6581.1,6.5591
6581.5,6.5587
6581.9,6.5583
6582.3,6.558
6582.7,6.5576
6583.1,6.5572
6583.5,6.5568
6583.9,6.5564
6584.3,6.556
6584.7,6.5556
6585.1,6.5552
6585.5,6.5549
6585.9,6.5545
6586.3,6.5541
6586.7,6.5537
6587.1,6.5533
6587.5,6.5529
6587.9,6.5525
6588.3,6.5521
6588.7,6.5518
6589.1,6.5514
6589.5,6.551
6589.9,6.5506
6590.3,6.5502
6590.7,6.5498
6591.1,6.5494
6591.5,6.549
6591.9,6.5487
6592.3,6.5483
6592.7,6.5479
6593.1,6.5475
6593.5,6.5471
6593.9,6.5467
6594.3,6.5463
6594.7,6.546
6595.1,6.5456
6595.5,6.5452
6595.9,6.5448
6596.3,6.5444
6596.7,6.544
6597.1,6.5436
6597.5,6.5432
6597.9,6.5429
6598.3,6.5425
6598.7,6.5421
6599.1,6.5417
6599.5,6.5413
6599.9,6.5409
6600.3,6.5405
6600.7,6.5401
6601.1,6.5398
6601.5,6.5394
6601.9,6.539
6602.3,6.5386
6602.7,6.5382
6603.1,6.5378
6603.5,6.5374
6603.9,6.537
6604.3,6.5367
6604.7,6.5363
6605.1,6.5359
6605.5,6.5355
6605.9,6.5351
6606.3,6.5347
6606.7,6.5343
6607.1,6.5339
6607.5,6.5336
6607.9,6.5332
6608.3,6.5328
6608.7,6.5324
6609.1,6.532
6609.5,6.5316
6609.9,6.5312
6610.3,6.5309
6610.7,6.5305
6611.1,6.5301
6611.5,6.5297
6611.9,6.5293
6612.3,6.5289
6612.7,6.5285
6613.1,6.5281
6613.5,6.5278
6613.9,6.5274
6614.3,6.527
6614.7,6.5266
6615.1,6.5262
6615.5,6.5258
6615.9,6.5254
6616.3,6.525
6616.7,6.5247
6617.1,6.5243
6617.5,6.5239
6617.9,6.5235
6618.3,6.5231
6618.7,6.5227
6619.1,6.5223
6619.5,6.5219
6619.9,6.5216
6620.3,6.5212
6620.7,6.5208
6621.1,6.5204
6621.5,6.52
6621.9,6.5196
6622.3,6.5192
6622.7,6.5189
6623.1,6.5185
6623.5,6.5181
6623.9,6.5177
6624.3,6.5173
6624.7,6.5169
6625.1,6.5165
6625.5,6.5161
6625.9,6.5158
6626.3,6.5154
6626.7,6.515
6627.1,6.5146
6627.5,6.5142
6627.9,6.5138
6628.3,6.5134
6628.7,6.513
6629.1,6.5127
6629.5,6.5123
6629.9,6.5119
6630.3,6.5115
6630.7,6.5111
6631.1,6.5107
6631.5,6.5103
6631.9,6.51
6632.3,6.5096
6632.7,6.5092
6633.1,6.5088
6633.5,6.5084
6633.9,6.508
6634.3,6.5076
6634.7,6.5072
6635.1,6.5069
6635.5,6.5065
6635.9,6.5061
6636.3,6.5057
6636.7,6.5053
6637.1,6.5049
6637.5,6.5045
6637.9,6.5042
6638.3,6.5038
6638.7,6.5034
6639.1,6.503
6639.5,6.5026
6639.9,6.5022
6640.3,6.5018
6640.7,6.5014
6641.1,6.5011
6641.5,6.5007
6641.9,6.5003
6642.3,6.4999
6642.7,6.4995
6643.1,6.4991
6643.5,6.4987
6643.9,6.4984
6644.3,6.498
6644.7,6.4976
6645.1,6.4972
6645.5,6.4968
6645.9,6.4964
6646.3,6.496
6646.7,6.4957
6647.1,6.4953
6647.5,6.4949
6647.9,6.4945
6648.3,6.4941
6648.7,6.4937
6649.1,6.4933
6649.5,6.4929
6649.9,6.4926
6650.3,6.4922
6650.7,6.4918
6651.1,6.4914
6651.5,6.491
6651.9,6.4906
6652.3,6.4902
6652.7,6.4899
6653.1,6.4895
6653.5,6.4891
6653.9,6.4887
6654.3,6.4883
6654.7,6.4879
6655.1,6.4875
6655.5,6.4872
6655.9,6.4868
6656.3,6.4864
6656.7,6.486
6657.1,6.4856
6657.5,6.4852
6657.9,6.4848
6658.3,6.4845
6658.7,6.4841
6659.1,6.4837
6659.5,6.4833
6659.9,6.4829
6660.3,6.4825
6660.7,6.4821
6661.1,6.4818
6661.5,6.4814
6661.9,6.481
6662.3,6.4806
6662.7,6.4802
6663.1,6.4798
6663.5,6.4794
6663.9,6.4791
6664.3,6.4787
6664.7,6.4783
6665.1,6.4779
6665.5,6.4775
6665.9,6.4771
6666.3,6.4767
6666.7,6.4764
6667.1,6.476
6667.5,6.4756
6667.9,6.4752
6668.3,6.4748
6668.7,6.4744
6669.1,6.474
6669.5,6.4737
6669.9,6.4733
6670.3,6.4729
6670.7,6.4725
6671.1,6.4721
6671.5,6.4717
6671.9,6.4713
6672.3,6.471
6672.7,6.4706
6673.1,6.4702
6673.5,6.4698
6673.9,6.4694
6674.3,6.469
6674.7,6.4687
6675.1,6.4683
6675.5,6.4679
6675.9,6.4675
6676.3,6.4671
6676.7,6.4667
6677.1,6.4663
6677.5,6.466
6677.9,6.4656
6678.3,6.4652
6678.7,6.4648
6679.1,6.4644
6679.5,6.464
6679.9,6.4637
6680.3,6.4633
6680.7,6.4629
6681.1,6.4625
6681.5,6.4621
6681.9,6.4617
6682.3,6.4613
6682.7,6.461
6683.1,6.4606
6683.5,6.4602
6683.9,6.4598
6684.3,6.4594
6684.7,6.459
6685.1,6.4587
6685.5,6.4583
6685.9,6.4579
6686.3,6.4575
6686.7,6.4571
6687.1,6.4567
6687.5,6.4564
6687.9,6.456
6688.3,6.4556
6688.7,6.4552
6689.1,6.4548
6689.5,6.4544
6689.9,6.454
6690.3,6.4537
6690.7,6.4533
6691.1,6.4529
6691.5,6.4525
6691.9,6.4521
6692.3,6.4517
6692.7,6.4514
6693.1,6.451
6693.5,6.4506
6693.9,6.4502
6694.3,6.4498
6694.7,6.4494
6695.1,6.4491
6695.5,6.4487
6695.9,6.4483
6696.3,6.4479
6696.7,6.4475
6697.1,6.4471
6697.5,6.4468
6697.9,6.4464
6698.3,6.446
6698.7,6.4456
6699.1,6.4452
6699.5,6.4448
6699.9,6.4445
6700.3,6.4441
6700.7,6.4437
6701.1,6.4433
6701.5,6.4429
6701.9,6.4425
6702.3,6.4422
6702.7,6.4418
6703.1,6.4414
6703.5,6.441
6703.9,6.4406
6704.3,6.4403
6704.7,6.4399
6705.1,6.4395
6705.5,6.4391
6705.9,6.4387
6706.3,6.4383
6706.7,6.438
6707.1,6.4376
6707.5,6.4372
6707.9,6.4368
6708.3,6.4364
6708.7,6.4361
6709.1,6.4357
6709.5,6.4353
6709.9,6.4349
6710.3,6.4345
6710.7,6.4341
6711.1,6.4338
6711.5,6.4334
6711.9,6.433
6712.3,6.4326
6712.7,6.4322
6713.1,6.4319
6713.5,6.4315
6713.9,6.4311
6714.3,6.4307
6714.7,6.4303
6715.1,6.4299
6715.5,6.4296
6715.9,6.4292
6716.3,6.4288
6716.7,6.4284
6717.1,6.428
6717.5,6.4277
6717.9,6.4273
6718.3,6.4269
6718.7,6.4265
6719.1,6.4261
6719.5,6.4258
6719.9,6.4254
6720.3,6.425
6720.7,6.4246
6721.1,6.4242
6721.5,6.4239
6721.9,6.4235
6722.3,6.4231
6722.7,6.4227
6723.1,6.4223
6723.5,6.422
6723.9,6.4216
6724.3,6.4212
6724.7,6.4208
6725.1,6.4204
6725.5,6.4201
6725.9,6.4197
6726.3,6.4193
6726.7,6.4189
6727.1,6.4185
6727.5,6.4182
6727.9,6.4178
6728.3,6.4174
6728.7,6.417
6729.1,6.4166
6729.5,6.4163
6729.9,6.4159
6730.3,6.4155
6730.7,6.4151
6731.1,6.4148
6731.5,6.4144
6731.9,6.414
6732.3,6.4136
6732.7,6.4132
6733.1,6.4129
6733.5,6.4125
6733.9,6.4121
6734.3,6.4117
6734.7,6.4114
6735.1,6.411
6735.5,6.4106
6735.9,6.4102
6736.3,6.4098
6736.7,6.4095
6737.1,6.4091
6737.5,6.4087
6737.9,6.4083
6738.3,6.408
6738.7,6.4076
6739.1,6.4072
6739.5,6.4068
6739.9,6.4065
6740.3,6.4061
6740.7,6.4057
6741.1,6.4053
6741.5,6.4049
6741.9,6.4046
6742.3,6.4042
6742.7,6.4038
6743.1,6.4034
6743.5,6.4031
6743.9,6.4027
6744.3,6.4023
6744.7,6.4019
6745.1,6.4016
6745.5,6.4012
6745.9,6.4008
6746.3,6.4004
6746.7,6.4001
6747.1,6.3997
6747.5,6.3993
6747.9,6.3989
6748.3,6.3986
6748.7,6.3982
6749.1,6.3978
6749.5,6.3975
6749.9,6.3971
6750.3,6.3967
6750.7,6.3963
6751.1,6.396
6751.5,6.3956
6751.9,6.3952
6752.3,6.3948
6752.7,6.3945
6753.1,6.3941
6753.5,6.3937
6753.9,6.3934
6754.3,6.393
6754.7,6.3926
6755.1,6.3922
6755.5,6.3919
6755.9,6.3915
6756.3,6.3911
6756.7,6.3908
6757.1,6.3904
6757.5,6.39
6757.9,6.3896
6758.3,6.3893
6758.7,6.3889
6759.1,6.3885
6759.5,6.3882
6759.9,6.3878
6760.3,6.3874
6760.7,6.3871
6761.1,6.3867
6761.5,6.3863
6761.9,6.386
6762.3,6.3856
6762.7,6.3852
6763.1,6.3849
6763.5,6.3845
6763.9,6.3841
6764.3,6.3838
6764.7,6.3834
6765.1,6.383
6765.5,6.3827
6765.9,6.3823
6766.3,6.3819
6766.7,6.3816
6767.1,6.3812
6767.5,6.3808
6767.9,6.3805
6768.3,6.3801
6768.7,6.3797
6769.1,6.3794
6769.5,6.379
6769.9,6.3786
6770.3,6.3783
6770.7,6.3779
6771.1,6.3775
6771.5,6.3772
6771.9,6.3768
6772.3,6.3765
6772.7,6.3761
6773.1,6.3757
6773.5,6.3754
6773.9,6.375
6774.3,6.3747
6774.7,6.3743
6775.1,6.3739
6775.5,6.3736
6775.9,6.3732
6776.3,6.3729
6776.7,6.3725
6777.1,6.3721
6777.5,6.3718
6777.9,6.3714
6778.3,6.3711
6778.7,6.3707
6779.1,6.3704
6779.5,6.37
6779.9,6.3696
6780.3,6.3693
6780.7,6.3689
6781.1,6.3686
6781.5,6.3682
6781.9,6.3679
6782.3,6.3675
6782.7,6.3672
6783.1,6.3668
6783.5,6.3665
6783.9,6.3661
6784.3,6.3657
6784.7,6.3654
6785.1,6.365
6785.5,6.3647
6785.9,6.3643
6786.3,6.364
6786.7,6.3636
6787.1,6.3633
6787.5,6.363
6787.9,6.3626
6788.3,6.3623
6788.7,6.3619
6789.1,6.3616
6789.5,6.3612
6789.9,6.3609
6790.3,6.3605
6790.7,6.3602
6791.1,6.3598
6791.5,6.3595
6791.9,6.3592
6792.3,6.3588
6792.7,6.3585
6793.1,6.3581
6793.5,6.3578
6793.9,6.3574
6794.3,6.3571
6794.7,6.3568
6795.1,6.3564
6795.5,6.3561
6795.9,6.3558
6796.3,6.3554
6796.7,6.3551
6797.1,6.3547
6797.5,6.3544
6797.9,6.3541
6798.3,6.3537
6798.7,6.3534
6799.1,6.3531
6799.5,6.3528
6799.9,6.3524
6800.3,6.3521
6800.7,6.3518
6801.1,6.3514
6801.5,6.3511
6801.9,6.3508
6802.3,6.3505
6802.7,6.3501
6803.1,6.3498
6803.5,6.3495
6803.9,6.3492
6804.3,6.3488
6804.7,6.3485
6805.1,6.3482
6805.5,6.3479
6805.9,6.3475
6806.3,6.3472
6806.7,6.3469
6807.1,6.3466
6807.5,6.3463
6807.9,6.346
6808.3,6.3457
6808.7,6.3453
6809.1,6.345
6809.5,6.3447
6809.9,6.3444
6810.3,6.3441
6810.7,6.3438
6811.1,6.3435
6811.5,6.3432
6811.9,6.3429
6812.3,6.3426
6812.7,6.3423
6813.1,6.342
6813.5,6.3417
6813.9,6.3414
6814.3,6.3411
6814.7,6.3408
6815.1,6.3405
6815.5,6.3402
6815.9,6.3399
6816.3,6.3396
6816.7,6.3393
6817.1,6.339
6817.5,6.3387
6817.9,6.3384
6818.3,6.3381
6818.7,6.3378
6819.1,6.3376
6819.5,6.3373
6819.9,6.337
6820.3,6.3367
6820.7,6.3364
6821.1,6.3362
6821.5,6.3359
6821.9,6.3356
6822.3,6.3353
6822.7,6.3351
6823.1,6.3348
6823.5,6.3345
6823.9,6.3342
6824.3,6.334
6824.7,6.3337
6825.1,6.3335
6825.5,6.3332
6825.9,6.3329
6826.3,6.3327
6826.7,6.3324
6827.1,6.3322
6827.5,6.3319
6827.9,6.3316
6828.3,6.3314
6828.7,6.3311
6829.1,6.3309
6829.5,6.3307
6829.9,6.3304
6830.3,6.3302
6830.7,6.3299
6831.1,6.3297
6831.5,6.3294
6831.9,6.3292
6832.3,6.329
6832.7,6.3288
6833.1,6.3285
6833.5,6.3283
6833.9,6.3281
6834.3,6.3278
6834.7,6.3276
6835.1,6.3274
6835.5,6.3272
6835.9,6.327
6836.3,6.3268
6836.7,6.3265
6837.1,6.3263
6837.5,6.3261
6837.9,6.3259
6838.3,6.3257
6838.7,6.3255
6839.1,6.3253
6839.5,6.3251
6839.9,6.3249
6840.3,6.3248
6840.7,6.3246
6841.1,6.3244
6841.5,6.3242
6841.9,6.324
6842.3,6.3238
6842.7,6.3237
6843.1,6.3235
6843.5,6.3233
6843.9,6.3232
6844.3,6.323
6844.7,6.3228
6845.1,6.3227
6845.5,6.3225
6845.9,6.3224
6846.3,6.3222
6846.7,6.3221
6847.1,6.3219
6847.5,6.3218
6847.9,6.3216
6848.3,6.3215
6848.7,6.3214
6849.1,6.3212
6849.5,6.3211
6849.9,6.321
6850.3,6.3209
6850.7,6.3207
6851.1,6.3206
6851.5,6.3205
6851.9,6.3204
6852.3,6.3203
6852.7,6.3202
6853.1,6.3201
6853.5,6.32
6853.9,6.3199
6854.3,6.3198
6854.7,6.3198
6855.1,6.3197
6855.5,6.3196
6855.9,6.3195
6856.3,6.3195
6856.7,6.3194
6857.1,6.3193
6857.5,6.3193
6857.9,6.3192
6858.3,6.3192
6858.7,6.3191
6859.1,6.3191
6859.5,6.3191
6859.9,6.319
6860.3,6.319
6860.7,6.319
6861.1,6.319
6861.5,6.319
6861.9,6.3189
6862.3,6.3189
6862.7,6.3189
6863.1,6.3189
6863.5,6.3189
6863.9,6.319
6864.3,6.319
6864.7,6.319
6865.1,6.319
6865.5,6.3191
6865.9,6.3191
6866.3,6.3191
6866.7,6.3192
6867.1,6.3192
6867.5,6.3193
6867.9,6.3194
6868.3,6.3194
6868.7,6.3195
6869.1,6.3196
6869.5,6.3197
6869.9,6.3197
6870.3,6.3198
6870.7,6.3199
6871.1,6.32
6871.5,6.3202
6871.9,6.3203
6872.3,6.3204
6872.7,6.3205
6873.1,6.3207
6873.5,6.3208
6873.9,6.3209
6874.3,6.3211
6874.7,6.3212
6875.1,6.3214
6875.5,6.3216
6875.9,6.3218
6876.3,6.3219
6876.7,6.3221
6877.1,6.3223
6877.5,6.3225
6877.9,6.3227
6878.3,6.323
6878.7,6.3232
6879.1,6.3234
6879.5,6.3237
6879.9,6.3239
6880.3,6.3242
6880.7,6.3244
6881.1,6.3247
6881.5,6.325
6881.9,6.3252
6882.3,6.3255
6882.7,6.3258
6883.1,6.3261
6883.5,6.3264
6883.9,6.3268
6884.3,6.3271
6884.7,6.3274
6885.1,6.3278
6885.5,6.3281
6885.9,6.3285
6886.3,6.3288
6886.7,6.3292
6887.1,6.3296
6887.5,6.33
6887.9,6.3304
6888.3,6.3308
6888.7,6.3312
6889.1,6.3316
6889.5,6.3321
6889.9,6.3325
6890.3,6.333
6890.7,6.3334
6891.1,6.3339
6891.5,6.3344
6891.9,6.3349
6892.3,6.3354
6892.7,6.3359
6893.1,6.3364
6893.5,6.3369
6893.9,6.3375
6894.3,6.338
6894.7,6.3386
6895.1,6.3392
6895.5,6.3397
6895.9,6.3403
6896.3,6.3409
6896.7,6.3415
6897.1,6.3422
6897.5,6.3428
6897.9,6.3434
6898.3,6.3441
6898.7,6.3448
6899.1,6.3454
6899.5,6.3461
6899.9,6.3468
6900.3,6.3475
6900.7,6.3482
6901.1,6.349
6901.5,6.3497
6901.9,6.3505
6902.3,6.3513
6902.7,6.352
6903.1,6.3528
6903.5,6.3536
6903.9,6.3544
6904.3,6.3553
6904.7,6.3561
6905.1,6.357
6905.5,6.3578
6905.9,6.3587
6906.3,6.3596
6906.7,6.3605
6907.1,6.3614
6907.5,6.3624
6907.9,6.3633
6908.3,6.3643
6908.7,6.3653
6909.1,6.3662
6909.5,6.3672
6909.9,6.3683
6910.3,6.3693
6910.7,6.3703
6911.1,6.3714
6911.5,6.3725
6911.9,6.3736
6912.3,6.3747
6912.7,6.3758
6913.1,6.3769
6913.5,6.3781
6913.9,6.3792
6914.3,6.3804
6914.7,6.3816
6915.1,6.3828
6915.5,6.384
6915.9,6.3853
6916.3,6.3865
6916.7,6.3878
6917.1,6.3891
6917.5,6.3904
6917.9,6.3917
6918.3,6.393
6918.7,6.3944
6919.1,6.3958
6919.5,6.3972
6919.9,6.3986
6920.3,6.4
6920.7,6.4014
6921.1,6.4029
6921.5,6.4044
6921.9,6.4059
6922.3,6.4074
6922.7,6.4089
6923.1,6.4105
6923.5,6.412
6923.9,6.4136
6924.3,6.4152
6924.7,6.4169
6925.1,6.4185
6925.5,6.4202
6925.9,6.4218
6926.3,6.4235
6926.7,6.4253
6927.1,6.427
6927.5,6.4288
6927.9,6.4306
6928.3,6.4324
6928.7,6.4342
6929.1,6.436
6929.5,6.4379
6929.9,6.4398
6930.3,6.4417
6930.7,6.4436
6931.1,6.4455
6931.5,6.4475
6931.9,6.4495
6932.3,6.4515
6932.7,6.4536
6933.1,6.4556
6933.5,6.4577
6933.9,6.4598
6934.3,6.4619
6934.7,6.4641
6935.1,6.4662
6935.5,6.4684
6935.9,6.4706
6936.3,6.4729
6936.7,6.4751
6937.1,6.4774
6937.5,6.4797
6937.9,6.4821
6938.3,6.4844
6938.7,6.4868
6939.1,6.4892
6939.5,6.4917
6939.9,6.4941
6940.3,6.4966
6940.7,6.4991
6941.1,6.5016
6941.5,6.5042
6941.9,6.5068
6942.3,6.5094
6942.7,6.512
6943.1,6.5147
6943.5,6.5174
6943.9,6.5201
6944.3,6.5229
6944.7,6.5256
6945.1,6.5284
6945.5,6.5312
6945.9,6.5341
6946.3,6.537
6946.7,6.5399
6947.1,6.5428
6947.5,6.5458
6947.9,6.5488
6948.3,6.5518
6948.7,6.5548
6949.1,6.5579
6949.5,6.561
6949.9,6.5642
6950.3,6.5673
6950.7,6.5705
6951.1,6.5738
6951.5,6.577
6951.9,6.5803
6952.3,6.5836
6952.7,6.587
6953.1,6.5903
6953.5,6.5938
6953.9,6.5972
6954.3,6.6007
6954.7,6.6042
6955.1,6.6077
6955.5,6.6113
6955.9,6.6149
6956.3,6.6185
6956.7,6.6222
6957.1,6.6259
6957.5,6.6296
6957.9,6.6334
6958.3,6.6371
6958.7,6.641
6959.1,6.6448
6959.5,6.6487
6959.9,6.6527
6960.3,6.6566
6960.7,6.6606
6961.1,6.6647
6961.5,6.6687
6961.9,6.6728
6962.3,6.677
6962.7,6.6811
6963.1,6.6853
6963.5,6.6896
6963.9,6.6939
6964.3,6.6982
6964.7,6.7025
6965.1,6.7069
6965.5,6.7114
6965.9,6.7158
6966.3,6.7203
6966.7,6.7249
6967.1,6.7294
6967.5,6.734
6967.9,6.7387
6968.3,6.7434
6968.7,6.7481
6969.1,6.7529
6969.5,6.7577
6969.9,6.7625
6970.3,6.7674
6970.7,6.7723
6971.1,6.7773
6971.5,6.7823
6971.9,6.7873
6972.3,6.7924
6972.7,6.7975
6973.1,6.8027
6973.5,6.8079
6973.9,6.8131
6974.3,6.8184
6974.7,6.8237
6975.1,6.8291
6975.5,6.8345
6975.9,6.8399
6976.3,6.8454
6976.7,6.8509
6977.1,6.8565
6977.5,6.8621
6977.9,6.8678
6978.3,6.8735
6978.7,6.8792
6979.1,6.885
6979.5,6.8908
6979.9,6.8967
6980.3,6.9026
6980.7,6.9086
6981.1,6.9146
6981.5,6.9206
6981.9,6.9267
6982.3,6.9328
6982.7,6.939
6983.1,6.9452
6983.5,6.9515
6983.9,6.9578
6984.3,6.9642
6984.7,6.9706
6985.1,6.977
6985.5,6.9835
6985.9,6.9901
6986.3,6.9967
6986.7,7.0033
6987.1,7.01
6987.5,7.0167
6987.9,7.0235
6988.3,7.0303
6988.7,7.0372
6989.1,7.0441
6989.5,7.0511
6989.9,7.0581
6990.3,7.0652
6990.7,7.0723
6991.1,7.0795
6991.5,7.0867
6991.9,7.0939
6992.3,7.1012
6992.7,7.1086
6993.1,7.116
6993.5,7.1234
6993.9,7.1309
6994.3,7.1385
6994.7,7.1461
6995.1,7.1538
6995.5,7.1615
6995.9,7.1692
6996.3,7.177
6996.7,7.1849
6997.1,7.1928
6997.5,7.2007
6997.9,7.2087
6998.3,7.2168
6998.7,7.2249
6999.1,7.2331
6999.5,7.2413
6999.9,7.2496
7000.3,7.2579
7000.7,7.2662
7001.1,7.2747
7001.5,7.2831
7001.9,7.2917
7002.3,7.3002
7002.7,7.3089
7003.1,7.3176
7003.5,7.3263
7003.9,7.3351
7004.3,7.3439
7004.7,7.3528
7005.1,7.3618
7005.5,7.3708
7005.9,7.3798
7006.3,7.3889
7006.7,7.3981
7007.1,7.4073
7007.5,7.4166
7007.9,7.4259
7008.3,7.4353
7008.7,7.4447
7009.1,7.4542
7009.5,7.4638
7009.9,7.4734
7010.3,7.483
7010.7,7.4928
7011.1,7.5025
7011.5,7.5123
7011.9,7.5222
7012.3,7.5321
7012.7,7.5421
7013.1,7.5522
7013.5,7.5623
7013.9,7.5724
7014.3,7.5826
7014.7,7.5929
7015.1,7.6032
7015.5,7.6136
7015.9,7.624
7016.3,7.6345
7016.7,7.6451
7017.1,7.6557
7017.5,7.6663
7017.9,7.677
7018.3,7.6878
7018.7,7.6986
7019.1,7.7095
7019.5,7.7205
7019.9,7.7315
7020.3,7.7425
7020.7,7.7536
7021.1,7.7648
7021.5,7.776
7021.9,7.7873
7022.3,7.7986
7022.7,7.81
7023.1,7.8215
7023.5,7.833
7023.9,7.8446
7024.3,7.8562
7024.7,7.8679
7025.1,7.8796
7025.5,7.8914
7025.9,7.9032
7026.3,7.9151
7026.7,7.9271
7027.1,7.9391
7027.5,7.9512
7027.9,7.9633
7028.3,7.9755
7028.7,7.9878
7029.1,8.0001
7029.5,8.0125
7029.9,8.0249
7030.3,8.0374
7030.7,8.0499
7031.1,8.0625
7031.5,8.0751
7031.9,8.0878
7032.3,8.1006
7032.7,8.1134
7033.1,8.1263
7033.5,8.1392
7033.9,8.1522
7034.3,8.1653
7034.7,8.1784
7035.1,8.1915
7035.5,8.2047
7035.9,8.218
7036.3,8.2313
7036.7,8.2447
7037.1,8.2582
7037.5,8.2717
7037.9,8.2852
7038.3,8.2988
7038.7,8.3125
7039.1,8.3262
7039.5,8.34
7039.9,8.3538
7040.3,8.3677
7040.7,8.3817
7041.1,8.3957
7041.5,8.4097
7041.9,8.4238
7042.3,8.438
7042.7,8.4522
7043.1,8.4665
7043.5,8.4808
7043.9,8.4952
7044.3,8.5096
7044.7,8.5241
7045.1,8.5387
7045.5,8.5533
7045.9,8.5679
7046.3,8.5826
7046.7,8.5974
7047.1,8.6122
7047.5,8.6271
7047.9,8.642
7048.3,8.6569
7048.7,8.672
7049.1,8.687
7049.5,8.7022
7049.9,8.7174
7050.3,8.7326
7050.7,8.7479
7051.1,8.7632
7051.5,8.7786
7051.9,8.794
7052.3,8.8095
7052.7,8.8251
7053.1,8.8407
7053.5,8.8563
7053.9,8.872
7054.3,8.8877
7054.7,8.9035
7055.1,8.9194
7055.5,8.9353
7055.9,8.9512
7056.3,8.9672
7056.7,8.9832
7057.1,8.9993
7057.5,9.0155
7057.9,9.0316
7058.3,9.0479
7058.7,9.0641
7059.1,9.0805
7059.5,9.0968
7059.9,9.1133
7060.3,9.1297
7060.7,9.1462
7061.1,9.1628
7061.5,9.1794
7061.9,9.196
7062.3,9.2127
7062.7,9.2294
7063.1,9.2462
7063.5,9.263
7063.9,9.2799
7064.3,9.2968
7064.7,9.3138
7065.1,9.3308
7065.5,9.3478
7065.9,9.3649
7066.3,9.382
7066.7,9.3991
7067.1,9.4164
7067.5,9.4336
7067.9,9.4509
7068.3,9.4682
7068.7,9.4856
7069.1,9.503
7069.5,9.5204
7069.9,9.5379
7070.3,9.5554
7070.7,9.5729
7071.1,9.5905
7071.5,9.6082
7071.9,9.6258
7072.3,9.6435
7072.7,9.6613
7073.1,9.679
7073.5,9.6968
7073.9,9.7147
7074.3,9.7326
7074.7,9.7505
7075.1,9.7684
7075.5,9.7864
7075.9,9.8044
7076.3,9.8224
7076.7,9.8405
7077.1,9.8586
7077.5,9.8767
7077.9,9.8949
7078.3,9.9131
7078.7,9.9313
7079.1,9.9496
7079.5,9.9678
7079.9,9.9861
7080.3,10.004
7080.7,10.023
7081.1,10.041
7081.5,10.06
7081.9,10.078
7082.3,10.097
7082.7,10.115
7083.1,10.134
7083.5,10.152
7083.9,10.171
7084.3,10.189
7084.7,10.208
7085.1,10.226
7085.5,10.245
7085.9,10.264
7086.3,10.282
7086.7,10.301
7087.1,10.32
7087.5,10.339
7087.9,10.357
7088.3,10.376
7088.7,10.395
7089.1,10.414
7089.5,10.433
7089.9,10.452
7090.3,10.47
7090.7,10.489
7091.1,10.508
7091.5,10.527
7091.9,10.546
7092.3,10.565
7092.7,10.584
7093.1,10.603
7093.5,10.622
7093.9,10.641
7094.3,10.66
7094.7,10.679
7095.1,10.698
7095.5,10.717
7095.9,10.736
7096.3,10.755
7096.7,10.774
7097.1,10.793
7097.5,10.812
7097.9,10.831
7098.3,10.85
7098.7,10.869
7099.1,10.888
7099.5,10.907
7099.9,10.926
7100.3,10.945
7100.7,10.964
7101.1,10.983
7101.5,11.002
7101.9,11.021
7102.3,11.04
7102.7,11.059
7103.1,11.078
7103.5,11.097
7103.9,11.116
7104.3,11.136
7104.7,11.155
7105.1,11.174
7105.5,11.193
7105.9,11.212
7106.3,11.23
7106.7,11.249
7107.1,11.268
7107.5,11.287
7107.9,11.306
7108.3,11.325
7108.7,11.344
7109.1,11.363
7109.5,11.382
7109.9,11.401
7110.3,11.42
7110.7,11.438
7111.1,11.457
7111.5,11.476
7111.9,11.495
7112.3,11.514
7112.7,11.532
7113.1,11.551
7113.5,11.57
7113.9,11.588
7114.3,11.607
7114.7,11.626
7115.1,11.644
7115.5,11.663
7115.9,11.681
7116.3,11.7
7116.7,11.718
7117.1,11.737
7117.5,11.755
7117.9,11.774
7118.3,11.792
7118.7,11.81
7119.1,11.829
7119.5,11.847
7119.9,11.865
7120.3,11.884
7120.7,11.902
7121.1,11.92
7121.5,11.938
7121.9,11.956
7122.3,11.974
7122.7,11.992
7123.1,12.01
7123.5,12.028
7123.9,12.046
7124.3,12.064
7124.7,12.082
7125.1,12.099
7125.5,12.117
7125.9,12.135
7126.3,12.153
7126.7,12.17
7127.1,12.188
7127.5,12.205
7127.9,12.223
7128.3,12.24
7128.7,12.257
7129.1,12.275
7129.5,12.292
7129.9,12.309
7130.3,12.326
7130.7,12.344
7131.1,12.361
7131.5,12.378
7131.9,12.395
7132.3,12.412
7132.7,12.428
7133.1,12.445
7133.5,12.462
7133.9,12.479
7134.3,12.495
7134.7,12.512
7135.1,12.528
7135.5,12.545
7135.9,12.561
7136.3,12.577
7136.7,12.594
7137.1,12.61
7137.5,12.626
7137.9,12.642
7138.3,12.658
7138.7,12.674
7139.1,12.69
7139.5,12.706
7139.9,12.722
7140.3,12.737
7140.7,12.753
7141.1,12.768
7141.5,12.784
7141.9,12.799
7142.3,12.815
7142.7,12.83
7143.1,12.845
7143.5,12.86
7143.9,12.875
7144.3,12.89
7144.7,12.905
7145.1,12.92
7145.5,12.935
7145.9,12.949
7146.3,12.964
7146.7,12.978
7147.1,12.993
7147.5,13.007
7147.9,13.021
7148.3,13.035
7148.7,13.05
7149.1,13.064
7149.5,13.077
7149.9,13.091
7150.3,13.105
7150.7,13.119
7151.1,13.132
7151.5,13.146
7151.9,13.159
7152.3,13.173
7152.7,13.186
7153.1,13.199
7153.5,13.212
7153.9,13.225
7154.3,13.238
7154.7,13.251
7155.1,13.263
7155.5,13.276
7155.9,13.289
7156.3,13.301
7156.7,13.313
7157.1,13.326
7157.5,13.338
7157.9,13.35
7158.3,13.362
7158.7,13.374
7159.1,13.385
7159.5,13.397
7159.9,13.409
7160.3,13.42
7160.7,13.431
7161.1,13.443
7161.5,13.454
7161.9,13.465
7162.3,13.476
7162.7,13.487
7163.1,13.497
7163.5,13.508
7163.9,13.519
7164.3,13.529
7164.7,13.539
7165.1,13.55
7165.5,13.56
7165.9,13.57
7166.3,13.58
7166.7,13.59
7167.1,13.599
7167.5,13.609
7167.9,13.618
7168.3,13.628
7168.7,13.637
7169.1,13.646
7169.5,13.655
7169.9,13.664
7170.3,13.673
7170.7,13.682
7171.1,13.69
7171.5,13.699
7171.9,13.707
7172.3,13.715
7172.7,13.724
7173.1,13.732
7173.5,13.74
7173.9,13.747
7174.3,13.755
7174.7,13.763
7175.1,13.77
7175.5,13.777
7175.9,13.785
7176.3,13.792
7176.7,13.799
7177.1,13.806
7177.5,13.812
7177.9,13.819
7178.3,13.826
7178.7,13.832
7179.1,13.838
7179.5,13.844
7179.9,13.851
7180.3,13.856
7180.7,13.862
7181.1,13.868
7181.5,13.874
7181.9,13.879
7182.3,13.884
7182.7,13.89
7183.1,13.895
7183.5,13.9
7183.9,13.904
7184.3,13.909
7184.7,13.914
7185.1,13.918
7185.5,13.923
7185.9,13.927
7186.3,13.931
7186.7,13.935
7187.1,13.939
7187.5,13.942
7187.9,13.946
7188.3,13.95
7188.7,13.953
7189.1,13.956
7189.5,13.959
7189.9,13.962
7190.3,13.965
7190.7,13.968
7191.1,13.97
7191.5,13.973
7191.9,13.975
7192.3,13.977
7192.7,13.979
7193.1,13.981
7193.5,13.983
7193.9,13.985
7194.3,13.987
7194.7,13.988
7195.1,13.989
7195.5,13.991
7195.9,13.992
7196.3,13.993
7196.7,13.993
7197.1,13.994
7197.5,13.995
7197.9,13.995
7198.3,13.995
7198.7,13.996
7199.1,13.996
7199.5,13.996
7199.9,13.995
7200.3,13.995
7200.7,13.995
7201.1,13.994
7201.5,13.993
7201.9,13.993
7202.3,13.992
7202.7,13.991
7203.1,13.989
7203.5,13.988
7203.9,13.987
7204.3,13.985
7204.7,13.983
7205.1,13.981
7205.5,13.979
7205.9,13.977
7206.3,13.975
7206.7,13.973
7207.1,13.97
7207.5,13.968
7207.9,13.965
7208.3,13.962
7208.7,13.959
7209.1,13.956
7209.5,13.953
7209.9,13.949
7210.3,13.946
7210.7,13.942
7211.1,13.938
7211.5,13.935
7211.9,13.931
7212.3,13.926
7212.7,13.922
7213.1,13.918
7213.5,13.913
7213.9,13.909
7214.3,13.904
7214.7,13.899
7215.1,13.894
7215.5,13.889
7215.9,13.884
7216.3,13.878
7216.7,13.873
7217.1,13.867
7217.5,13.862
7217.9,13.856
7218.3,13.85
7218.7,13.844
7219.1,13.837
7219.5,13.831
7219.9,13.825
7220.3,13.818
7220.7,13.811
7221.1,13.805
7221.5,13.798
7221.9,13.791
7222.3,13.783
7222.7,13.776
7223.1,13.769
7223.5,13.761
7223.9,13.754
7224.3,13.746
7224.7,13.738
7225.1,13.73
7225.5,13.722
7225.9,13.714
7226.3,13.705
7226.7,13.697
7227.1,13.688
7227.5,13.68
7227.9,13.671
7228.3,13.662
7228.7,13.653
7229.1,13.644
7229.5,13.635
7229.9,13.625
7230.3,13.616
7230.7,13.606
7231.1,13.596
7231.5,13.587
7231.9,13.577
7232.3,13.567
7232.7,13.557
7233.1,13.546
7233.5,13.536
7233.9,13.526
7234.3,13.515
7234.7,13.504
7235.1,13.494
7235.5,13.483
7235.9,13.472
7236.3,13.461
7236.7,13.45
7237.1,13.438
7237.5,13.427
7237.9,13.415
7238.3,13.404
7238.7,13.392
7239.1,13.38
7239.5,13.368
7239.9,13.356
7240.3,13.344
7240.7,13.332
7241.1,13.32
7241.5,13.307
7241.9,13.295
7242.3,13.282
7242.7,13.27
7243.1,13.257
7243.5,13.244
7243.9,13.231
7244.3,13.218
7244.7,13.205
7245.1,13.192
7245.5,13.178
7245.9,13.165
7246.3,13.152
7246.7,13.138
7247.1,13.124
7247.5,13.11
7247.9,13.097
7248.3,13.083
7248.7,13.069
7249.1,13.054
7249.5,13.04
7249.9,13.026
7250.3,13.012
7250.7,12.997
7251.1,12.983
7251.5,12.968
7251.9,12.953
7252.3,12.938
7252.7,12.924
7253.1,12.909
7253.5,12.894
7253.9,12.878
7254.3,12.863
7254.7,12.848
7255.1,12.833
7255.5,12.817
7255.9,12.802
7256.3,12.786
7256.7,12.771
7257.1,12.755
7257.5,12.739
7257.9,12.723
7258.3,12.707
7258.7,12.691
7259.1,12.675
7259.5,12.659
7259.9,12.643
7260.3,12.626
7260.7,12.61
7261.1,12.594
7261.5,12.577
7261.9,12.561
7262.3,12.544
7262.7,12.527
7263.1,12.511
7263.5,12.494
7263.9,12.477
7264.3,12.46
7264.7,12.443
7265.1,12.426
7265.5,12.409
7265.9,12.392
7266.3,12.374
7266.7,12.357
7267.1,12.34
7267.5,12.322
7267.9,12.305
7268.3,12.287
7268.7,12.27
7269.1,12.252
7269.5,12.235
7269.9,12.217
7270.3,12.199
7270.7,12.181
7271.1,12.163
7271.5,12.146
7271.9,12.128
7272.3,12.11
7272.7,12.092
7273.1,12.073
7273.5,12.055
7273.9,12.037
7274.3,12.019
7274.7,12.001
7275.1,11.982
7275.5,11.964
7275.9,11.945
7276.3,11.927
7276.7,11.908
7277.1,11.89
7277.5,11.871
7277.9,11.853
7278.3,11.834
7278.7,11.815
7279.1,11.797
7279.5,11.778
7279.9,11.759
7280.3,11.74
7280.7,11.722
7281.1,11.703
7281.5,11.684
7281.9,11.665
7282.3,11.646
7282.7,11.627
7283.1,11.608
7283.5,11.589
7283.9,11.57
7284.3,11.551
7284.7,11.531
7285.1,11.512
7285.5,11.493
7285.9,11.474
7286.3,11.455
7286.7,11.435
7287.1,11.416
7287.5,11.397
7287.9,11.378
7288.3,11.358
7288.7,11.339
7289.1,11.319
7289.5,11.3
7289.9,11.281
7290.3,11.261
7290.7,11.242
7291.1,11.222
7291.5,11.203
7291.9,11.183
7292.3,11.164
7292.7,11.144
7293.1,11.125
7293.5,11.105
7293.9,11.086
7294.3,11.066
7294.7,11.047
7295.1,11.027
7295.5,11.008
7295.9,10.988
7296.3,10.968
7296.7,10.949
7297.1,10.929
7297.5,10.91
7297.9,10.89
7298.3,10.87
7298.7,10.851
7299.1,10.831
7299.5,10.812
7299.9,10.792
7300.3,10.772
7300.7,10.753
7301.1,10.733
7301.5,10.713
7301.9,10.694
7302.3,10.674
7302.7,10.655
7303.1,10.635
7303.5,10.615
7303.9,10.596
7304.3,10.576
7304.7,10.557
7305.1,10.537
7305.5,10.518
7305.9,10.498
7306.3,10.479
7306.7,10.459
7307.1,10.439
7307.5,10.42
7307.9,10.4
7308.3,10.381
7308.7,10.361
7309.1,10.342
7309.5,10.323
7309.9,10.303
7310.3,10.284
7310.7,10.264
7311.1,10.245
7311.5,10.226
7311.9,10.206
7312.3,10.187
7312.7,10.168
7313.1,10.148
7313.5,10.129
7313.9,10.11
7314.3,10.09
7314.7,10.071
7315.1,10.052
7315.5,10.033
7315.9,10.014
7316.3,9.9945
7316.7,9.9754
7317.1,9.9563
7317.5,9.9372
7317.9,9.9182
7318.3,9.8992
7318.7,9.8802
7319.1,9.8612
7319.5,9.8423
7319.9,9.8234
7320.3,9.8045
7320.7,9.7856
7321.1,9.7668
7321.5,9.748
7321.9,9.7292
7322.3,9.7105
7322.7,9.6918
7323.1,9.6731
7323.5,9.6545
7323.9,9.6358
7324.3,9.6173
7324.7,9.5987
7325.1,9.5802
7325.5,9.5617
7325.9,9.5432
7326.3,9.5248
7326.7,9.5064
7327.1,9.4881
7327.5,9.4698
7327.9,9.4515
7328.3,9.4332
7328.7,9.415
7329.1,9.3969
7329.5,9.3787
7329.9,9.3606
7330.3,9.3426
7330.7,9.3246
7331.1,9.3066
7331.5,9.2886
7331.9,9.2707
7332.3,9.2529
7332.7,9.235
7333.1,9.2173
7333.5,9.1995
7333.9,9.1818
7334.3,9.1641
7334.7,9.1465
7335.1,9.129
7335.5,9.1114
7335.9,9.0939
7336.3,9.0765
7336.7,9.0591
7337.1,9.0417
7337.5,9.0244
7337.9,9.0071
7338.3,8.9899
7338.7,8.9727
7339.1,8.9556
7339.5,8.9385
7339.9,8.9214
7340.3,8.9044
7340.7,8.8875
7341.1,8.8706
7341.5,8.8537
7341.9,8.8369
7342.3,8.8201
7342.7,8.8034
7343.1,8.7868
7343.5,8.7701
7343.9,8.7536
7344.3,8.737
7344.7,8.7206
7345.1,8.7041
7345.5,8.6878
7345.9,8.6714
7346.3,8.6551
7346.7,8.6389
7347.1,8.6227
7347.5,8.6066
7347.9,8.5905
7348.3,8.5745
7348.7,8.5585
7349.1,8.5426
7349.5,8.5267
7349.9,8.5109
7350.3,8.4952
7350.7,8.4794
7351.1,8.4638
7351.5,8.4482
7351.9,8.4326
7352.3,8.4171
7352.7,8.4017
7353.1,8.3863
7353.5,8.3709
7353.9,8.3556
7354.3,8.3404
7354.7,8.3252
7355.1,8.3101
7355.5,8.295
7355.9,8.28
7356.3,8.265
7356.7,8.2501
7357.1,8.2352
7357.5,8.2204
7357.9,8.2057
7358.3,8.191
7358.7,8.1763
7359.1,8.1617
7359.5,8.1472
7359.9,8.1327
7360.3,8.1183
7360.7,8.104
7361.1,8.0896
7361.5,8.0754
7361.9,8.0612
7362.3,8.0471
7362.7,8.033
7363.1,8.0189
7363.5,8.005
7363.9,7.9911
7364.3,7.9772
7364.7,7.9634
7365.1,7.9496
7365.5,7.936
7365.9,7.9223
7366.3,7.9087
7366.7,7.8952
7367.1,7.8818
7367.5,7.8684
7367.9,7.855
7368.3,7.8417
7368.7,7.8285
7369.1,7.8153
7369.5,7.8022
7369.9,7.7891
7370.3,7.7761
7370.7,7.7631
7371.1,7.7503
7371.5,7.7374
7371.9,7.7246
7372.3,7.7119
7372.7,7.6992
7373.1,7.6866
7373.5,7.6741
7373.9,7.6616
7374.3,7.6492
7374.7,7.6368
7375.1,7.6244
7375.5,7.6122
7375.9,7.6
7376.3,7.5878
7376.7,7.5757
7377.1,7.5637
7377.5,7.5517
7377.9,7.5398
7378.3,7.5279
7378.7,7.5161
7379.1,7.5044
7379.5,7.4927
7379.9,7.481
7380.3,7.4694
7380.7,7.4579
7381.1,7.4464
7381.5,7.435
7381.9,7.4237
7382.3,7.4124
7382.7,7.4011
7383.1,7.3899
7383.5,7.3788
7383.9,7.3677
7384.3,7.3567
7384.7,7.3457
7385.1,7.3348
7385.5,7.324
7385.9,7.3132
7386.3,7.3024
7386.7,7.2918
7387.1,7.2811
7387.5,7.2706
7387.9,7.26
7388.3,7.2496
7388.7,7.2392
7389.1,7.2288
7389.5,7.2185
7389.9,7.2083
7390.3,7.1981
7390.7,7.188
7391.1,7.1779
7391.5,7.1679
7391.9,7.1579
7392.3,7.148
7392.7,7.1381
7393.1,7.1283
7393.5,7.1186
7393.9,7.1089
7394.3,7.0992
7394.7,7.0897
7395.1,7.0801
7395.5,7.0706
7395.9,7.0612
7396.3,7.0518
7396.7,7.0425
7397.1,7.0333
7397.5,7.024
7397.9,7.0149
7398.3,7.0058
7398.7,6.9967
7399.1,6.9877
7399.5,6.9788
7399.9,6.9699
7400.3,6.961
7400.7,6.9522
7401.1,6.9435
7401.5,6.9348
7401.9,6.9261
7402.3,6.9175
7402.7,6.909
7403.1,6.9005
7403.5,6.8921
7403.9,6.8837
7404.3,6.8753
7404.7,6.8671
7405.1,6.8588
7405.5,6.8506
7405.9,6.8425
7406.3,6.8344
7406.7,6.8264
7407.1,6.8184
7407.5,6.8104
7407.9,6.8026
7408.3,6.7947
7408.7,6.7869
7409.1,6.7792
7409.5,6.7715
7409.9,6.7638
7410.3,6.7562
7410.7,6.7487
7411.1,6.7412
7411.5,6.7337
7411.9,6.7263
7412.3,6.719
7412.7,6.7117
7413.1,6.7044
7413.5,6.6972
7413.9,6.69
7414.3,6.6829
7414.7,6.6758
7415.1,6.6688
7415.5,6.6618
7415.9,6.6548
7416.3,6.6479
7416.7,6.6411
7417.1,6.6343
7417.5,6.6275
7417.9,6.6208
7418.3,6.6141
7418.7,6.6075
7419.1,6.6009
7419.5,6.5944
7419.9,6.5879
7420.3,6.5815
7420.7,6.575
7421.1,6.5687
7421.5,6.5624
7421.9,6.5561
7422.3,6.5499
7422.7,6.5437
7423.1,6.5375
7423.5,6.5314
7423.9,6.5253
7424.3,6.5193
7424.7,6.5133
7425.1,6.5074
7425.5,6.5015
7425.9,6.4956
7426.3,6.4898
7426.7,6.484
7427.1,6.4783
7427.5,6.4726
7427.9,6.467
7428.3,6.4613
7428.7,6.4558
7429.1,6.4502
7429.5,6.4447
7429.9,6.4393
7430.3,6.4339
7430.7,6.4285
7431.1,6.4231
7431.5,6.4178
7431.9,6.4126
7432.3,6.4074
7432.7,6.4022
7433.1,6.397
7433.5,6.3919
7433.9,6.3868
7434.3,6.3818
7434.7,6.3768
7435.1,6.3718
7435.5,6.3669
7435.9,6.362
7436.3,6.3572
7436.7,6.3523
7437.1,6.3475
7437.5,6.3428
7437.9,6.3381
7438.3,6.3334
7438.7,6.3288
7439.1,6.3242
7439.5,6.3196
7439.9,6.3151
7440.3,6.3105
7440.7,6.3061
7441.1,6.3016
7441.5,6.2972
7441.9,6.2929
7442.3,6.2885
7442.7,6.2842
7443.1,6.28
7443.5,6.2757
7443.9,6.2715
7444.3,6.2673
7444.7,6.2632
7445.1,6.2591
7445.5,6.255
7445.9,6.251
7446.3,6.247
7446.7,6.243
7447.1,6.239
7447.5,6.2351
7447.9,6.2312
7448.3,6.2274
7448.7,6.2235
7449.1,6.2197
7449.5,6.216
7449.9,6.2122
7450.3,6.2085
7450.7,6.2048
7451.1,6.2012
7451.5,6.1976
7451.9,6.194
7452.3,6.1904
7452.7,6.1869
7453.1,6.1834
7453.5,6.1799
7453.9,6.1765
7454.3,6.173
7454.7,6.1696
7455.1,6.1663
7455.5,6.1629
7455.9,6.1596
7456.3,6.1563
7456.7,6.1531
7457.1,6.1498
7457.5,6.1466
7457.9,6.1434
7458.3,6.1403
7458.7,6.1372
7459.1,6.1341
7459.5,6.131
7459.9,6.1279
7460.3,6.1249
7460.7,6.1219
7461.1,6.1189
7461.5,6.116
7461.9,6.113
7462.3,6.1101
7462.7,6.1073
7463.1,6.1044
7463.5,6.1016
7463.9,6.0988
7464.3,6.096
7464.7,6.0932
7465.1,6.0905
7465.5,6.0878
7465.9,6.0851
7466.3,6.0824
7466.7,6.0798
7467.1,6.0771
7467.5,6.0745
7467.9,6.072
7468.3,6.0694
7468.7,6.0669
7469.1,6.0643
7469.5,6.0619
7469.9,6.0594
7470.3,6.0569
7470.7,6.0545
7471.1,6.0521
7471.5,6.0497
7471.9,6.0473
7472.3,6.045
7472.7,6.0427
7473.1,6.0403
7473.5,6.0381
7473.9,6.0358
7474.3,6.0335
7474.7,6.0313
7475.1,6.0291
7475.5,6.0269
7475.9,6.0247
7476.3,6.0226
7476.7,6.0205
7477.1,6.0183
7477.5,6.0162
7477.9,6.0142
7478.3,6.0121
7478.7,6.0101
7479.1,6.008
7479.5,6.006
7479.9,6.004
7480.3,6.0021
7480.7,6.0001
7481.1,5.9982
7481.5,5.9963
7481.9,5.9944
7482.3,5.9925
7482.7,5.9906
7483.1,5.9887
7483.5,5.9869
7483.9,5.9851
7484.3,5.9833
7484.7,5.9815
7485.1,5.9797
7485.5,5.978
7485.9,5.9762
7486.3,5.9745
7486.7,5.9728
7487.1,5.9711
7487.5,5.9694
7487.9,5.9677
7488.3,5.9661
7488.7,5.9645
7489.1,5.9628
7489.5,5.9612
7489.9,5.9596
7490.3,5.9581
7490.7,5.9565
7491.1,5.9549
7491.5,5.9534
7491.9,5.9519
7492.3,5.9504
7492.7,5.9489
7493.1,5.9474
7493.5,5.9459
7493.9,5.9445
7494.3,5.943
7494.7,5.9416
7495.1,5.9402
7495.5,5.9388
7495.9,5.9374
7496.3,5.936
7496.7,5.9347
7497.1,5.9333
7497.5,5.932
7497.9,5.9306
7498.3,5.9293
7498.7,5.928
7499.1,5.9267
7499.5,5.9254
7499.9,5.9242
7500.4,5.9229
7500.8,5.9217
7501.2,5.9204
7501.6,5.9192
7502,5.918
7502.4,5.9168
7502.8,5.9156
7503.2,5.9144
7503.6,5.9132
7504,5.9121
7504.4,5.9109
7504.8,5.9098
7505.2,5.9087
7505.6,5.9075
7506,5.9064
7506.4,5.9053
7506.8,5.9042
7507.2,5.9032
7507.6,5.9021
7508,5.901
7508.4,5.9
7508.8,5.8989
7509.2,5.8979
7509.6,5.8969
7510,5.8959
7510.4,5.8949
7510.8,5.8939
7511.2,5.8929
7511.6,5.8919
7512,5.8909
7512.4,5.89
7512.8,5.889
7513.2,5.8881
7513.6,5.8872
7514,5.8862
7514.4,5.8853
7514.8,5.8844
7515.2,5.8835
7515.6,5.8826
7516,5.8817
7516.4,5.8809
7516.8,5.88
7517.2,5.8791
7517.6,5.8783
7518,5.8774
7518.4,5.8766
7518.8,5.8758
7519.2,5.8749
7519.6,5.8741
7520,5.8733
7520.4,5.8725
7520.8,5.8717
7521.2,5.8709
7521.6,5.8701
7522,5.8694
7522.4,5.8686
7522.8,5.8678
7523.2,5.8671
7523.6,5.8663
7524,5.8656
7524.4,5.8649
7524.8,5.8641
7525.2,5.8634
7525.6,5.8627
7526,5.862
7526.4,5.8613
7526.8,5.8606
7527.2,5.8599
7527.6,5.8592
7528,5.8585
7528.4,5.8579
7528.8,5.8572
7529.2,5.8565
7529.6,5.8559
7530,5.8552
7530.4,5.8546
7530.8,5.854
7531.2,5.8533
7531.6,5.8527
7532,5.8521
7532.4,5.8515
7532.8,5.8508
7533.2,5.8502
7533.6,5.8496
7534,5.849
7534.4,5.8484
7534.8,5.8479
7535.2,5.8473
7535.6,5.8467
7536,5.8461
7536.4,5.8456
7536.8,5.845
7537.2,5.8444
7537.6,5.8439
7538,5.8433
7538.4,5.8428
7538.8,5.8423
7539.2,5.8417
7539.6,5.8412
7540,5.8407
7540.4,5.8401
7540.8,5.8396
7541.2,5.8391
7541.6,5.8386
7542,5.8381
7542.4,5.8376
7542.8,5.8371
7543.2,5.8366
7543.6,5.8361
7544,5.8356
7544.4,5.8351
7544.8,5.8347
7545.2,5.8342
7545.6,5.8337
7546,5.8333
7546.4,5.8328
7546.8,5.8323
7547.2,5.8319
7547.6,5.8314
7548,5.831
7548.4,5.8305
7548.8,5.8301
7549.2,5.8296
7549.6,5.8292
7550,5.8288
7550.4,5.8284
7550.8,5.8279
7551.2,5.8275
7551.6,5.8271
7552,5.8267
7552.4,5.8263
7552.8,5.8258
7553.2,5.8254
7553.6,5.825
7554,5.8246
7554.4,5.8242
7554.8,5.8238
7555.2,5.8234
7555.6,5.8231
7556,5.8227
7556.4,5.8223
7556.8,5.8219
7557.2,5.8215
7557.6,5.8211
7558,5.8208
7558.4,5.8204
7558.8,5.82
7559.2,5.8197
7559.6,5.8193
7560,5.8189
7560.4,5.8186
7560.8,5.8182
7561.2,5.8179
7561.6,5.8175
7562,5.8172
7562.4,5.8168
7562.8,5.8165
7563.2,5.8161
7563.6,5.8158
7564,5.8155
7564.4,5.8151
7564.8,5.8148
7565.2,5.8145
7565.6,5.8141
7566,5.8138
7566.4,5.8135
7566.8,5.8132
7567.2,5.8128
7567.6,5.8125
7568,5.8122
7568.4,5.8119
7568.8,5.8116
7569.2,5.8113
7569.6,5.811
7570,5.8106
7570.4,5.8103
7570.8,5.81
7571.2,5.8097
7571.6,5.8094
7572,5.8091
7572.4,5.8088
7572.8,5.8085
7573.2,5.8082
7573.6,5.808
7574,5.8077
7574.4,5.8074
7574.8,5.8071
7575.2,5.8068
7575.6,5.8065
7576,5.8062
7576.4,5.806
7576.8,5.8057
7577.2,5.8054
7577.6,5.8051
7578,5.8049
7578.4,5.8046
7578.8,5.8043
7579.2,5.804
7579.6,5.8038
7580,5.8035
7580.4,5.8032
7580.8,5.803
7581.2,5.8027
7581.6,5.8024
7582,5.8022
7582.4,5.8019
7582.8,5.8017
7583.2,5.8014
7583.6,5.8012
7584,5.8009
7584.4,5.8006
7584.8,5.8004
7585.2,5.8001
7585.6,5.7999
7586,5.7996
7586.4,5.7994
7586.8,5.7991
7587.2,5.7989
7587.6,5.7987
7588,5.7984
7588.4,5.7982
7588.8,5.7979
7589.2,5.7977
7589.6,5.7975
7590,5.7972
7590.4,5.797
7590.8,5.7967
7591.2,5.7965
7591.6,5.7963
7592,5.796
7592.4,5.7958
7592.8,5.7956
7593.2,5.7953
7593.6,5.7951
7594,5.7949
7594.4,5.7947
7594.8,5.7944
7595.2,5.7942
7595.6,5.794
7596,5.7938
7596.4,5.7935
7596.8,5.7933
7597.2,5.7931
7597.6,5.7929
7598,5.7927
7598.4,5.7924
7598.8,5.7922
7599.2,5.792
7599.6,5.7918
7600,5.7916
7600.4,5.7913
7600.8,5.7911
7601.2,5.7909
7601.6,5.7907
7602,5.7905
7602.4,5.7903
7602.8,5.7901
7603.2,5.7899
7603.6,5.7896
7604,5.7894
7604.4,5.7892
7604.8,5.789
7605.2,5.7888
7605.6,5.7886
7606,5.7884
7606.4,5.7882
7606.8,5.788
7607.2,5.7878
7607.6,5.7876
7608,5.7874
7608.4,5.7872
7608.8,5.787
7609.2,5.7868
7609.6,5.7866
7610,5.7864
7610.4,5.7862
7610.8,5.786
7611.2,5.7858
7611.6,5.7856
7612,5.7854
7612.4,5.7852
7612.8,5.785
7613.2,5.7848
7613.6,5.7846
7614,5.7844
7614.4,5.7842
7614.8,5.784
7615.2,5.7838
7615.6,5.7836
7616,5.7834
7616.4,5.7833
7616.8,5.7831
7617.2,5.7829
7617.6,5.7827
7618,5.7825
7618.4,5.7823
7618.8,5.7821
7619.2,5.7819
7619.6,5.7817
7620,5.7816
7620.4,5.7814
7620.8,5.7812
7621.2,5.781
7621.6,5.7808
7622,5.7806
7622.4,5.7804
7622.8,5.7802
7623.2,5.7801
7623.6,5.7799
7624,5.7797
7624.4,5.7795
7624.8,5.7793
7625.2,5.7791
7625.6,5.779
7626,5.7788
7626.4,5.7786
7626.8,5.7784
7627.2,5.7782
7627.6,5.7781
7628,5.7779
7628.4,5.7777
7628.8,5.7775
7629.2,5.7773
7629.6,5.7772
7630,5.777
7630.4,5.7768
7630.8,5.7766
7631.2,5.7764
7631.6,5.7763
7632,5.7761
7632.4,5.7759
7632.8,5.7757
7633.2,5.7756
7633.6,5.7754
7634,5.7752
7634.4,5.775
7634.8,5.7749
7635.2,5.7747
7635.6,5.7745
7636,5.7743
7636.4,5.7742
7636.8,5.774
7637.2,5.7738
7637.6,5.7736
7638,5.7735
7638.4,5.7733
7638.8,5.7731
7639.2,5.773
7639.6,5.7728
7640,5.7726
7640.4,5.7724
7640.8,5.7723
7641.2,5.7721
7641.6,5.7719
7642,5.7718
7642.4,5.7716
7642.8,5.7714
7643.2,5.7713
7643.6,5.7711
7644,5.7709
7644.4,5.7707
7644.8,5.7706
7645.2,5.7704
7645.6,5.7702
7646,5.7701
7646.4,5.7699
7646.8,5.7697
7647.2,5.7696
7647.6,5.7694
7648,5.7692
7648.4,5.7691
7648.8,5.7689
7649.2,5.7687
7649.6,5.7686
7650,5.7684
7650.4,5.7682
7650.8,5.7681
7651.2,5.7679
7651.6,5.7677
7652,5.7676
7652.4,5.7674
7652.8,5.7672
7653.2,5.7671
7653.6,5.7669
7654,5.7668
7654.4,5.7666
7654.8,5.7664
7655.2,5.7663
7655.6,5.7661
7656,5.7659
7656.4,5.7658
7656.8,5.7656
7657.2,5.7654
7657.6,5.7653
7658,5.7651
7658.4,5.765
7658.8,5.7648
7659.2,5.7646
7659.6,5.7645
7660,5.7643
7660.4,5.7642
7660.8,5.764
7661.2,5.7638
7661.6,5.7637
7662,5.7635
7662.4,5.7633
7662.8,5.7632
7663.2,5.763
7663.6,5.7629
7664,5.7627
7664.4,5.7626
7664.8,5.7624
7665.2,5.7622
7665.6,5.7621
7666,5.7619
7666.4,5.7618
7666.8,5.7616
7667.2,5.7614
7667.6,5.7613
7668,5.7611
7668.4,5.761
7668.8,5.7608
7669.2,5.7606
7669.6,5.7605
7670,5.7603
7670.4,5.7602
7670.8,5.76
7671.2,5.7599
7671.6,5.7597
7672,5.7595
7672.4,5.7594
7672.8,5.7592
7673.2,5.7591
7673.6,5.7589
7674,5.7588
7674.4,5.7586
7674.8,5.7585
7675.2,5.7583
7675.6,5.7581
7676,5.758
7676.4,5.7578
7676.8,5.7577
7677.2,5.7575
7677.6,5.7574
7678,5.7572
7678.4,5.7571
7678.8,5.7569
7679.2,5.7567
7679.6,5.7566
7680,5.7564
7680.4,5.7563
7680.8,5.7561
7681.2,5.756
7681.6,5.7558
7682,5.7557
7682.4,5.7555
7682.8,5.7554
7683.2,5.7552
7683.6,5.7551
7684,5.7549
7684.4,5.7547
7684.8,5.7546
7685.2,5.7544
7685.6,5.7543
7686,5.7541
7686.4,5.754
7686.8,5.7538
7687.2,5.7537
7687.6,5.7535
7688,5.7534
7688.4,5.7532
7688.8,5.7531
7689.2,5.7529
7689.6,5.7528
7690,5.7526
7690.4,5.7525
7690.8,5.7523
7691.2,5.7522
7691.6,5.752
7692,5.7519
7692.4,5.7517
7692.8,5.7516
7693.2,5.7514
7693.6,5.7513
7694,5.7511
7694.4,5.751
7694.8,5.7508
7695.2,5.7507
7695.6,5.7505
7696,5.7504
7696.4,5.7502
7696.8,5.7501
7697.2,5.7499
7697.6,5.7498
7698,5.7496
7698.4,5.7495
7698.8,5.7493
7699.2,5.7492
7699.6,5.749
7700,5.7489
7700.4,5.7487
7700.8,5.7486
7701.2,5.7484
7701.6,5.7483
7702,5.7481
7702.4,5.748
7702.8,5.7478
7703.2,5.7477
7703.6,5.7475
7704,5.7474
7704.4,5.7472
7704.8,5.7471
7705.2,5.747
7705.6,5.7468
7706,5.7467
7706.4,5.7465
7706.8,5.7464
7707.2,5.7462
7707.6,5.7461
7708,5.7459
7708.4,5.7458
7708.8,5.7456
7709.2,5.7455
7709.6,5.7453
7710,5.7452
7710.4,5.7451
7710.8,5.7449
7711.2,5.7448
7711.6,5.7446
7712,5.7445
7712.4,5.7443
7712.8,5.7442
7713.2,5.744
7713.6,5.7439
7714,5.7437
7714.4,5.7436
7714.8,5.7435
7715.2,5.7433
7715.6,5.7432
7716,5.743
7716.4,5.7429
7716.8,5.7427
7717.2,5.7426
7717.6,5.7424
7718,5.7423
7718.4,5.7422
7718.8,5.742
7719.2,5.7419
7719.6,5.7417
7720,5.7416
7720.4,5.7414
7720.8,5.7413
7721.2,5.7412
7721.6,5.741
7722,5.7409
7722.4,5.7407
7722.8,5.7406
7723.2,5.7404
7723.6,5.7403
7724,5.7402
7724.4,5.74
7724.8,5.7399
7725.2,5.7397
7725.6,5.7396
7726,5.7394
7726.4,5.7393
7726.8,5.7392
7727.2,5.739
7727.6,5.7389
7728,5.7387
7728.4,5.7386
7728.8,5.7385
7729.2,5.7383
7729.6,5.7382
7730,5.738
7730.4,5.7379
7730.8,5.7378
7731.2,5.7376
7731.6,5.7375
7732,5.7373
7732.4,5.7372
7732.8,5.7371
7733.2,5.7369
7733.6,5.7368
7734,5.7366
7734.4,5.7365
7734.8,5.7364
7735.2,5.7362
7735.6,5.7361
7736,5.7359
7736.4,5.7358
7736.8,5.7357
7737.2,5.7355
7737.6,5.7354
7738,5.7352
7738.4,5.7351
7738.8,5.735
7739.2,5.7348
7739.6,5.7347
7740,5.7345
7740.4,5.7344
7740.8,5.7343
7741.2,5.7341
7741.6,5.734
7742,5.7339
7742.4,5.7337
7742.8,5.7336
7743.2,5.7334
7743.6,5.7333
7744,5.7332
7744.4,5.733
7744.8,5.7329
7745.2,5.7328
7745.6,5.7326
7746,5.7325
7746.4,5.7323
7746.8,5.7322
7747.2,5.7321
7747.6,5.7319
7748,5.7318
7748.4,5.7317
7748.8,5.7315
7749.2,5.7314
7749.6,5.7312
7750,5.7311
7750.4,5.731
7750.8,5.7308
7751.2,5.7307
7751.6,5.7306
7752,5.7304
7752.4,5.7303
7752.8,5.7302
7753.2,5.73
7753.6,5.7299
7754,5.7298
7754.4,5.7296
7754.8,5.7295
7755.2,5.7293
7755.6,5.7292
7756,5.7291
7756.4,5.7289
7756.8,5.7288
7757.2,5.7287
7757.6,5.7285
7758,5.7284
7758.4,5.7283
7758.8,5.7281
7759.2,5.728
7759.6,5.7279
7760,5.7277
7760.4,5.7276
7760.8,5.7275
7761.2,5.7273
7761.6,5.7272
7762,5.7271
7762.4,5.7269
7762.8,5.7268
7763.2,5.7267
7763.6,5.7265
7764,5.7264
7764.4,5.7263
7764.8,5.7261
7765.2,5.726
7765.6,5.7259
7766,5.7257
7766.4,5.7256
7766.8,5.7255
7767.2,5.7253
7767.6,5.7252
7768,5.7251
7768.4,5.7249
7768.8,5.7248
7769.2,5.7247
7769.6,5.7246
7770,5.7244
7770.4,5.7243
7770.8,5.7242
7771.2,5.724
7771.6,5.7239
7772,5.7238
7772.4,5.7236
7772.8,5.7235
7773.2,5.7234
7773.6,5.7232
7774,5.7231
7774.4,5.723
7774.8,5.7228
7775.2,5.7227
7775.6,5.7226
7776,5.7225
7776.4,5.7223
7776.8,5.7222
7777.2,5.7221
7777.6,5.7219
7778,5.7218
7778.4,5.7217
7778.8,5.7215
7779.2,5.7214
7779.6,5.7213
7780,5.7212
7780.4,5.721
7780.8,5.7209
7781.2,5.7208
7781.6,5.7206
7782,5.7205
7782.4,5.7204
7782.8,5.7203
7783.2,5.7201
7783.6,5.72
7784,5.7199
7784.4,5.7197
7784.8,5.7196
7785.2,5.7195
7785.6,5.7194
7786,5.7192
7786.4,5.7191
7786.8,5.719
7787.2,5.7188
7787.6,5.7187
7788,5.7186
7788.4,5.7185
7788.8,5.7183
7789.2,5.7182
7789.6,5.7181
7790,5.718
7790.4,5.7178
7790.8,5.7177
7791.2,5.7176
7791.6,5.7174
7792,5.7173
7792.4,5.7172
7792.8,5.7171
7793.2,5.7169
7793.6,5.7168
7794,5.7167
7794.4,5.7166
7794.8,5.7164
7795.2,5.7163
7795.6,5.7162
7796,5.7161
7796.4,5.7159
7796.8,5.7158
7797.2,5.7157
7797.6,5.7156
7798,5.7154
7798.4,5.7153
7798.8,5.7152
7799.2,5.7151
7799.6,5.7149
7800,5.7148
7800.4,5.7147
7800.8,5.7146
7801.2,5.7144
7801.6,5.7143
7802,5.7142
7802.4,5.7141
7802.8,5.7139
7803.2,5.7138
7803.6,5.7137
7804,5.7136
7804.4,5.7134
7804.8,5.7133
7805.2,5.7132
7805.6,5.7131
7806,5.7129
7806.4,5.7128
7806.8,5.7127
7807.2,5.7126
7807.6,5.7124
7808,5.7123
7808.4,5.7122
7808.8,5.7121
7809.2,5.712
7809.6,5.7118
7810,5.7117
7810.4,5.7116
7810.8,5.7115
7811.2,5.7113
7811.6,5.7112
7812,5.7111
7812.4,5.711
7812.8,5.7109
7813.2,5.7107
7813.6,5.7106
7814,5.7105
7814.4,5.7104
7814.8,5.7102
7815.2,5.7101
7815.6,5.71
7816,5.7099
7816.4,5.7098
7816.8,5.7096
7817.2,5.7095
7817.6,5.7094
7818,5.7093
7818.4,5.7092
7818.8,5.709
7819.2,5.7089
7819.6,5.7088
7820,5.7087
7820.4,5.7085
7820.8,5.7084
7821.2,5.7083
7821.6,5.7082
7822,5.7081
7822.4,5.7079
7822.8,5.7078
7823.2,5.7077
7823.6,5.7076
7824,5.7075
7824.4,5.7073
7824.8,5.7072
7825.2,5.7071
7825.6,5.707
7826,5.7069
7826.4,5.7068
7826.8,5.7066
7827.2,5.7065
7827.6,5.7064
7828,5.7063
7828.4,5.7062
7828.8,5.706
7829.2,5.7059
7829.6,5.7058
7830,5.7057
7830.4,5.7056
7830.8,5.7054
7831.2,5.7053
7831.6,5.7052
7832,5.7051
7832.4,5.705
7832.8,5.7049
7833.2,5.7047
7833.6,5.7046
7834,5.7045
7834.4,5.7044
7834.8,5.7043
7835.2,5.7041
7835.6,5.704
7836,5.7039
7836.4,5.7038
7836.8,5.7037
7837.2,5.7036
7837.6,5.7034
7838,5.7033
7838.4,5.7032
7838.8,5.7031
7839.2,5.703
7839.6,5.7029
7840,5.7027
7840.4,5.7026
7840.8,5.7025
7841.2,5.7024
7841.6,5.7023
7842,5.7022
7842.4,5.702
7842.8,5.7019
7843.2,5.7018
7843.6,5.7017
7844,5.7016
7844.4,5.7015
7844.8,5.7014
7845.2,5.7012
7845.6,5.7011
7846,5.701
7846.4,5.7009
7846.8,5.7008
7847.2,5.7007
7847.6,5.7006
7848,5.7004
7848.4,5.7003
7848.8,5.7002
7849.2,5.7001
7849.6,5.7
7850,5.6999
7850.4,5.6997
7850.8,5.6996
7851.2,5.6995
7851.6,5.6994
7852,5.6993
7852.4,5.6992
7852.8,5.6991
7853.2,5.699
7853.6,5.6988
7854,5.6987
7854.4,5.6986
7854.8,5.6985
7855.2,5.6984
7855.6,5.6983
7856,5.6982
7856.4,5.698
7856.8,5.6979
7857.2,5.6978
7857.6,5.6977
7858,5.6976
7858.4,5.6975
7858.8,5.6974
7859.2,5.6973
7859.6,5.6971
7860,5.697
7860.4,5.6969
7860.8,5.6968
7861.2,5.6967
7861.6,5.6966
7862,5.6965
7862.4,5.6964
7862.8,5.6962
7863.2,5.6961
7863.6,5.696
7864,5.6959
7864.4,5.6958
7864.8,5.6957
7865.2,5.6956
7865.6,5.6955
7866,5.6954
7866.4,5.6952
7866.8,5.6951
7867.2,5.695
7867.6,5.6949
7868,5.6948
7868.4,5.6947
7868.8,5.6946
7869.2,5.6945
7869.6,5.6944
7870,5.6943
7870.4,5.6941
7870.8,5.694
7871.2,5.6939
7871.6,5.6938
7872,5.6937
7872.4,5.6936
7872.8,5.6935
7873.2,5.6934
7873.6,5.6933
7874,5.6932
7874.4,5.693
7874.8,5.6929
7875.2,5.6928
7875.6,5.6927
7876,5.6926
7876.4,5.6925
7876.8,5.6924
7877.2,5.6923
7877.6,5.6922
7878,5.6921
7878.4,5.692
7878.8,5.6918
7879.2,5.6917
7879.6,5.6916
7880,5.6915
7880.4,5.6914
7880.8,5.6913
7881.2,5.6912
7881.6,5.6911
7882,5.691
7882.4,5.6909
7882.8,5.6908
7883.2,5.6907
7883.6,5.6906
7884,5.6904
7884.4,5.6903
7884.8,5.6902
7885.2,5.6901
7885.6,5.69
7886,5.6899
7886.4,5.6898
7886.8,5.6897
7887.2,5.6896
7887.6,5.6895
7888,5.6894
7888.4,5.6893
7888.8,5.6892
7889.2,5.6891
7889.6,5.6889
7890,5.6888
7890.4,5.6887
7890.8,5.6886
7891.2,5.6885
7891.6,5.6884
7892,5.6883
7892.4,5.6882
7892.8,5.6881
7893.2,5.688
7893.6,5.6879
7894,5.6878
7894.4,5.6877
7894.8,5.6876
7895.2,5.6875
7895.6,5.6874
7896,5.6873
7896.4,5.6872
7896.8,5.687
7897.2,5.6869
7897.6,5.6868
7898,5.6867
7898.4,5.6866
7898.8,5.6865
7899.2,5.6864
7899.6,5.6863
7900,5.6862
7900.4,5.6861
7900.8,5.686
7901.2,5.6859
7901.6,5.6858
7902,5.6857
7902.4,5.6856
7902.8,5.6855
7903.2,5.6854
7903.6,5.6853
7904,5.6852
7904.4,5.6851
7904.8,5.685
7905.2,5.6849
7905.6,5.6848
7906,5.6847
7906.4,5.6846
7906.8,5.6844
7907.2,5.6843
7907.6,5.6842
7908,5.6841
7908.4,5.684
7908.8,5.6839
7909.2,5.6838
7909.6,5.6837
7910,5.6836
7910.4,5.6835
7910.8,5.6834
7911.2,5.6833
7911.6,5.6832
7912,5.6831
7912.4,5.683
7912.8,5.6829
7913.2,5.6828
7913.6,5.6827
7914,5.6826
7914.4,5.6825
7914.8,5.6824
7915.2,5.6823
7915.6,5.6822
7916,5.6821
7916.4,5.682
7916.8,5.6819
7917.2,5.6818
7917.6,5.6817
7918,5.6816
7918.4,5.6815
7918.8,5.6814
7919.2,5.6813
7919.6,5.6812
7920,5.6811
7920.4,5.681
7920.8,5.6809
7921.2,5.6808
7921.6,5.6807
7922,5.6806
7922.4,5.6805
7922.8,5.6804
7923.2,5.6803
7923.6,5.6802
7924,5.6801
7924.4,5.68
7924.8,5.6799
7925.2,5.6798
7925.6,5.6797
7926,5.6796
7926.4,5.6795
7926.8,5.6794
7927.2,5.6793
7927.6,5.6792
7928,5.6791
7928.4,5.679
7928.8,5.6789
7929.2,5.6788
7929.6,5.6787
7930,5.6786
7930.4,5.6785
7930.8,5.6784
7931.2,5.6783
7931.6,5.6782
7932,5.6781
7932.4,5.678
7932.8,5.6779
7933.2,5.6778
7933.6,5.6777
7934,5.6776
7934.4,5.6775
7934.8,5.6774
7935.2,5.6773
7935.6,5.6772
7936,5.6771
7936.4,5.677
7936.8,5.6769
7937.2,5.6768
7937.6,5.6767
7938,5.6767
7938.4,5.6766
7938.8,5.6765
7939.2,5.6764
7939.6,5.6763
7940,5.6762
7940.4,5.6761
7940.8,5.676
7941.2,5.6759
7941.6,5.6758
7942,5.6757
7942.4,5.6756
7942.8,5.6755
7943.2,5.6754
7943.6,5.6753
7944,5.6752
7944.4,5.6751
7944.8,5.675
7945.2,5.6749
7945.6,5.6748
7946,5.6747
7946.4,5.6746
7946.8,5.6745
7947.2,5.6744
7947.6,5.6743
7948,5.6742
7948.4,5.6742
7948.8,5.6741
7949.2,5.674
7949.6,5.6739
7950,5.6738
7950.4,5.6737
7950.8,5.6736
7951.2,5.6735
7951.6,5.6734
7952,5.6733
7952.4,5.6732
7952.8,5.6731
7953.2,5.673
7953.6,5.6729
7954,5.6728
7954.4,5.6727
7954.8,5.6726
7955.2,5.6725
7955.6,5.6725
7956,5.6724
7956.4,5.6723
7956.8,5.6722
7957.2,5.6721
7957.6,5.672
7958,5.6719
7958.4,5.6718
7958.8,5.6717
7959.2,5.6716
7959.6,5.6715
7960,5.6714
7960.4,5.6713
7960.8,5.6712
7961.2,5.6711
7961.6,5.6711
7962,5.671
7962.4,5.6709
7962.8,5.6708
7963.2,5.6707
7963.6,5.6706
7964,5.6705
7964.4,5.6704
7964.8,5.6703
7965.2,5.6702
7965.6,5.6701
7966,5.67
7966.4,5.6699
7966.8,5.6699
7967.2,5.6698
7967.6,5.6697
7968,5.6696
7968.4,5.6695
7968.8,5.6694
7969.2,5.6693
7969.6,5.6692
7970,5.6691
7970.4,5.669
7970.8,5.6689
7971.2,5.6688
7971.6,5.6688
7972,5.6687
7972.4,5.6686
7972.8,5.6685
7973.2,5.6684
7973.6,5.6683
7974,5.6682
7974.4,5.6681
7974.8,5.668
7975.2,5.6679
7975.6,5.6679
7976,5.6678
7976.4,5.6677
7976.8,5.6676
7977.2,5.6675
7977.6,5.6674
7978,5.6673
7978.4,5.6672
7978.8,5.6671
7979.2,5.667
7979.6,5.667
7980,5.6669
7980.4,5.6668
7980.8,5.6667
7981.2,5.6666
7981.6,5.6665
7982,5.6664
7982.4,5.6663
7982.8,5.6662
7983.2,5.6662
7983.6,5.6661
7984,5.666
7984.4,5.6659
7984.8,5.6658
7985.2,5.6657
7985.6,5.6656
7986,5.6655
7986.4,5.6654
7986.8,5.6654
7987.2,5.6653
7987.6,5.6652
7988,5.6651
7988.4,5.665
7988.8,5.6649
7989.2,5.6648
7989.6,5.6647
7990,5.6646
7990.4,5.6646
7990.8,5.6645
7991.2,5.6644
7991.6,5.6643
7992,5.6642
7992.4,5.6641
7992.8,5.664
7993.2,5.664
7993.6,5.6639
7994,5.6638
7994.4,5.6637
7994.8,5.6636
7995.2,5.6635
7995.6,5.6634
7996,5.6633
7996.4,5.6633
7996.8,5.6632
7997.2,5.6631
7997.6,5.663
7998,5.6629
7998.4,5.6628
7998.8,5.6627
7999.2,5.6627
7999.6,5.6626
8000,5.6625
